timestampMs,poorSignal,eegRawValue,eegRawValueVolts,attention,meditation,blinkStrength,delta,theta,alphaLow,alphaHigh,betaLow,betaHigh,gammaLow,gammaMid,tagEvent,location
1643178012184,0,1,2.197265625E-7,44,61,35,16745686,16765192,16746806,26756,31443,13291,4141,6356,Tag0,unknown
1643178012197,0,-257,-5.64697265625E-5,44,61,35,16745686,16765192,16746806,26756,31443,13291,4141,6356,Tag0,unknown
1643178012198,0,5,1.0986328125E-6,44,61,35,16745686,16765192,16746806,26756,31443,13291,4141,6356,Tag0,unknown
1643178012213,0,22,4.833984375E-6,44,61,35,16745686,16765192,16746806,26756,31443,13291,4141,6356,Tag0,unknown
1643178012214,0,-262,-5.7568359375E-5,44,61,35,16745686,16765192,16746806,26756,31443,13291,4141,6356,Tag0,unknown
1643178012231,0,-262,-5.7568359375E-5,44,61,35,16745686,16765192,16746806,26756,31443,13291,4141,6356,Tag0,unknown
1643178012232,0,1,2.197265625E-7,44,61,35,16745686,16765192,16746806,26756,31443,13291,4141,6356,Tag0,unknown
1643178012233,0,2,4.39453125E-7,44,61,35,16745686,16765192,16746806,26756,31443,13291,4141,6356,Tag0,unknown
1643178012248,0,11,2.4169921875E-6,44,61,35,16745686,16765192,16746806,26756,31443,13291,4141,6356,Tag0,unknown
1643178012249,0,21,4.614257812500001E-6,44,61,35,16745686,16765192,16746806,26756,31443,13291,4141,6356,Tag0,unknown
1643178012250,0,1,2.197265625E-7,44,61,35,16745686,16765192,16746806,26756,31443,13291,4141,6356,Tag0,unknown
1643178012265,0,-274,-6.0205078124999997E-5,44,61,35,16745686,16765192,16746806,26756,31443,13291,4141,6356,Tag0,unknown
1643178012266,0,38,8.349609375E-6,44,61,35,16745686,16765192,16746806,26756,31443,13291,4141,6356,Tag0,unknown
1643178012283,0,9,1.9775390625E-6,44,61,35,16745686,16765192,16746806,26756,31443,13291,4141,6356,Tag0,unknown
1643178012284,0,18,3.955078125E-6,44,61,35,16745686,16765192,16746806,26756,31443,13291,4141,6356,Tag0,unknown
1643178012285,0,1,2.197265625E-7,44,61,35,16745686,16765192,16746806,26756,31443,13291,4141,6356,Tag0,unknown
1643178012299,0,-259,-5.69091796875E-5,44,61,35,16745686,16765192,16746806,26756,31443,13291,4141,6356,Tag0,unknown
1643178012300,0,13,2.8564453125E-6,44,61,35,16745686,16765192,16746806,26756,31443,13291,4141,6356,Tag0,unknown
1643178012301,0,22,4.833984375E-6,44,61,35,16745686,16765192,16746806,26756,31443,13291,4141,6356,Tag0,unknown
1643178012316,0,42,9.228515625000002E-6,44,61,35,16745686,16765192,16746806,26756,31443,13291,4141,6356,Tag0,unknown
1643178012332,0,85,1.86767578125E-5,44,61,35,16745686,16765192,16746806,26756,31443,13291,4141,6356,Tag0,unknown
1643178012333,0,53,1.1645507812500002E-5,44,61,35,16745686,16765192,16746806,26756,31443,13291,4141,6356,Tag0,unknown
1643178012347,0,51,1.1206054687499999E-5,44,61,35,16745686,16765192,16746806,26756,31443,13291,4141,6356,Tag0,unknown
1643178012348,0,48,1.0546875E-5,44,61,35,16745686,16765192,16746806,26756,31443,13291,4141,6356,Tag0,unknown
1643178012349,0,11,2.4169921875E-6,44,61,35,16745686,16765192,16746806,26756,31443,13291,4141,6356,Tag0,unknown
1643178012350,0,21,4.614257812500001E-6,44,61,35,16745686,16765192,16746806,26756,31443,13291,4141,6356,Tag0,unknown
1643178012367,0,17,3.7353515625000003E-6,44,61,35,16745686,16765192,16746806,26756,31443,13291,4141,6356,Tag0,unknown
1643178012368,0,-292,-6.416015625000001E-5,44,61,35,16745686,16765192,16746806,26756,31443,13291,4141,6356,Tag0,unknown
1643178012382,0,-302,-6.6357421875E-5,44,61,35,16745686,16765192,16746806,26756,31443,13291,4141,6356,Tag0,unknown
1643178012383,0,-283,-6.218261718750001E-5,44,61,35,16745686,16765192,16746806,26756,31443,13291,4141,6356,Tag0,unknown
1643178012398,0,-275,-6.04248046875E-5,44,61,35,16745686,16765192,16746806,26756,31443,13291,4141,6356,Tag0,unknown
1643178012399,0,4,8.7890625E-7,44,61,35,16745686,16765192,16746806,26756,31443,13291,4141,6356,Tag0,unknown
1643178012418,0,9,1.9775390625E-6,44,61,35,16745686,16765192,16746806,26756,31443,13291,4141,6356,Tag0,unknown
1643178012419,0,-261,-5.73486328125E-5,44,61,35,16745686,16765192,16746806,26756,31443,13291,4141,6356,Tag0,unknown
1643178012420,0,44,9.66796875E-6,44,61,35,16745686,16765192,16746806,26756,31443,13291,4141,6356,Tag0,unknown
1643178012432,0,88,1.93359375E-5,44,61,35,16745686,16765192,16746806,26756,31443,13291,4141,6356,Tag0,unknown
1643178012433,0,113,2.48291015625E-5,44,61,35,16745686,16765192,16746806,26756,31443,13291,4141,6356,Tag0,unknown
1643178012449,0,65,1.42822265625E-5,44,61,35,16745686,16765192,16746806,26756,31443,13291,4141,6356,Tag0,unknown
1643178012450,0,36,7.91015625E-6,44,61,35,16745686,16765192,16746806,26756,31443,13291,4141,6356,Tag0,unknown
1643178012468,0,83,1.82373046875E-5,44,61,35,16745686,16765192,16746806,26756,31443,13291,4141,6356,Tag0,unknown
1643178012469,0,76,1.669921875E-5,44,61,35,16745686,16765192,16746806,26756,31443,13291,4141,6356,Tag0,unknown
1643178012470,0,49,1.07666015625E-5,44,61,35,16745686,16765192,16746806,26756,31443,13291,4141,6356,Tag0,unknown
1643178012481,0,42,9.228515625000002E-6,44,61,35,16745686,16765192,16746806,26756,31443,13291,4141,6356,Tag0,unknown
1643178012482,0,38,8.349609375E-6,44,61,35,16745686,16765192,16746806,26756,31443,13291,4141,6356,Tag0,unknown
1643178012498,0,71,1.56005859375E-5,44,61,35,16745686,16765192,16746806,26756,31443,13291,4141,6356,Tag0,unknown
1643178012499,0,57,1.2524414062500001E-5,44,61,35,16745686,16765192,16746806,26756,31443,13291,4141,6356,Tag0,unknown
1643178012500,0,38,8.349609375E-6,44,61,35,16745686,16765192,16746806,26756,31443,13291,4141,6356,Tag0,unknown
1643178012515,0,90,1.9775390625E-5,44,61,35,16745686,16765192,16746806,26756,31443,13291,4141,6356,Tag0,unknown
1643178012516,0,67,1.4721679687500002E-5,44,61,35,16745686,16765192,16746806,26756,31443,13291,4141,6356,Tag0,unknown
1643178012517,0,32,7.03125E-6,44,61,35,16745686,16765192,16746806,26756,31443,13291,4141,6356,Tag0,unknown
1643178012533,0,93,2.04345703125E-5,44,61,35,16745686,16765192,16746806,26756,31443,13291,4141,6356,Tag0,unknown
1643178012534,0,83,1.82373046875E-5,44,61,35,16745686,16765192,16746806,26756,31443,13291,4141,6356,Tag0,unknown
1643178012535,0,11,2.4169921875E-6,44,61,35,16745686,16765192,16746806,26756,31443,13291,4141,6356,Tag0,unknown
1643178012549,0,11,2.4169921875E-6,44,61,35,16745686,16765192,16746806,26756,31443,13291,4141,6356,Tag0,unknown
1643178012550,0,71,1.56005859375E-5,44,61,35,16745686,16765192,16746806,26756,31443,13291,4141,6356,Tag0,unknown
1643178012551,0,115,2.52685546875E-5,44,61,35,16745686,16765192,16746806,26756,31443,13291,4141,6356,Tag0,unknown
1643178012565,0,122,2.6806640625E-5,44,61,35,16745686,16765192,16746806,26756,31443,13291,4141,6356,Tag0,unknown
1643178012566,0,119,2.6147460937500004E-5,44,61,35,16745686,16765192,16746806,26756,31443,13291,4141,6356,Tag0,unknown
1643178012567,0,-119,-2.6147460937500004E-5,44,61,35,16745686,16765192,16746806,26756,31443,13291,4141,6356,Tag0,unknown
1643178012584,0,-39,-8.5693359375E-6,44,61,35,16745686,16765192,16746806,26756,31443,13291,4141,6356,Tag0,unknown
1643178012585,0,300,6.591796875E-5,44,61,35,16745686,16765192,16746806,26756,31443,13291,4141,6356,Tag0,unknown
1643178012600,0,369,8.10791015625E-5,51,67,35,375241,78124,21804,16746571,12250,11352,6818,1758,Tag0,unknown
1643178012601,0,168,3.691406250000001E-5,51,67,35,375241,78124,21804,16746571,12250,11352,6818,1758,Tag0,unknown
1643178012617,0,358,7.8662109375E-5,51,67,35,375241,78124,21804,16746571,12250,11352,6818,1758,Tag0,unknown
1643178012618,0,265,5.82275390625E-5,51,67,35,375241,78124,21804,16746571,12250,11352,6818,1758,Tag0,unknown
1643178012631,0,99,2.1752929687500003E-5,51,67,35,375241,78124,21804,16746571,12250,11352,6818,1758,Tag0,unknown
1643178012632,0,75,1.64794921875E-5,51,67,35,375241,78124,21804,16746571,12250,11352,6818,1758,Tag0,unknown
1643178012653,0,8,1.7578125E-6,51,67,35,375241,78124,21804,16746571,12250,11352,6818,1758,Tag0,unknown
1643178012654,0,-285,-6.26220703125E-5,51,67,35,375241,78124,21804,16746571,12250,11352,6818,1758,Tag0,unknown
1643178012655,0,-339,-7.448730468750001E-5,51,67,35,375241,78124,21804,16746571,12250,11352,6818,1758,Tag0,unknown
1643178012668,0,-181,-3.9770507812500004E-5,51,67,35,375241,78124,21804,16746571,12250,11352,6818,1758,Tag0,unknown
1643178012670,0,-216,-4.7460937500000004E-5,51,67,35,375241,78124,21804,16746571,12250,11352,6818,1758,Tag0,unknown
1643178012671,0,-227,-4.98779296875E-5,51,67,35,375241,78124,21804,16746571,12250,11352,6818,1758,Tag0,unknown
1643178012684,0,-520,-1.142578125E-4,51,67,35,375241,78124,21804,16746571,12250,11352,6818,1758,Tag0,unknown
1643178012685,0,-248,-5.44921875E-5,51,67,35,375241,78124,21804,16746571,12250,11352,6818,1758,Tag0,unknown
1643178012686,0,-216,-4.7460937500000004E-5,51,67,35,375241,78124,21804,16746571,12250,11352,6818,1758,Tag0,unknown
1643178012698,0,-236,-5.185546875E-5,51,67,35,375241,78124,21804,16746571,12250,11352,6818,1758,Tag0,unknown
1643178012699,0,-231,-5.07568359375E-5,51,67,35,375241,78124,21804,16746571,12250,11352,6818,1758,Tag0,unknown
1643178012700,0,-188,-4.1308593750000004E-5,51,67,35,375241,78124,21804,16746571,12250,11352,6818,1758,Tag0,unknown
1643178012716,0,-168,-3.691406250000001E-5,51,67,35,375241,78124,21804,16746571,12250,11352,6818,1758,Tag0,unknown
1643178012717,0,-136,-2.9882812500000002E-5,51,67,35,375241,78124,21804,16746571,12250,11352,6818,1758,Tag0,unknown
1643178012734,0,-369,-8.10791015625E-5,51,67,35,375241,78124,21804,16746571,12250,11352,6818,1758,Tag0,unknown
1643178012735,0,-371,-8.151855468750001E-5,51,67,35,375241,78124,21804,16746571,12250,11352,6818,1758,Tag0,unknown
1643178012736,0,-382,-8.3935546875E-5,51,67,35,375241,78124,21804,16746571,12250,11352,6818,1758,Tag0,unknown
1643178012749,0,-358,-7.8662109375E-5,51,67,35,375241,78124,21804,16746571,12250,11352,6818,1758,Tag0,unknown
1643178012750,0,-307,-6.74560546875E-5,51,67,35,375241,78124,21804,16746571,12250,11352,6818,1758,Tag0,unknown
1643178012766,0,-310,-6.8115234375E-5,51,67,35,375241,78124,21804,16746571,12250,11352,6818,1758,Tag0,unknown
1643178012767,0,-261,-5.73486328125E-5,51,67,35,375241,78124,21804,16746571,12250,11352,6818,1758,Tag0,unknown
1643178012784,0,0,0.0,51,67,35,375241,78124,21804,16746571,12250,11352,6818,1758,Tag0,unknown
1643178012785,0,4,8.7890625E-7,51,67,35,375241,78124,21804,16746571,12250,11352,6818,1758,Tag0,unknown
1643178012786,0,-281,-6.17431640625E-5,51,67,35,375241,78124,21804,16746571,12250,11352,6818,1758,Tag0,unknown
1643178012799,0,-283,-6.218261718750001E-5,51,67,35,375241,78124,21804,16746571,12250,11352,6818,1758,Tag0,unknown
1643178012800,0,19,4.1748046875E-6,51,67,35,375241,78124,21804,16746571,12250,11352,6818,1758,Tag0,unknown
1643178012815,0,-267,-5.86669921875E-5,51,67,35,375241,78124,21804,16746571,12250,11352,6818,1758,Tag0,unknown
1643178012816,0,-262,-5.7568359375E-5,51,67,35,375241,78124,21804,16746571,12250,11352,6818,1758,Tag0,unknown
1643178012817,0,57,1.2524414062500001E-5,51,67,55,375241,78124,21804,16746571,12250,11352,6818,1758,Tag0,unknown
1643178012834,0,60,1.318359375E-5,51,67,55,375241,78124,21804,16746571,12250,11352,6818,1758,Tag0,unknown
1643178012835,0,21,4.614257812500001E-6,51,67,55,375241,78124,21804,16746571,12250,11352,6818,1758,Tag0,unknown
1643178012852,0,73,1.6040039062500002E-5,51,67,55,375241,78124,21804,16746571,12250,11352,6818,1758,Tag0,unknown
1643178012853,0,64,1.40625E-5,51,67,55,375241,78124,21804,16746571,12250,11352,6818,1758,Tag0,unknown
1643178012854,0,45,9.8876953125E-6,51,67,55,375241,78124,21804,16746571,12250,11352,6818,1758,Tag0,unknown
1643178012867,0,44,9.66796875E-6,51,67,55,375241,78124,21804,16746571,12250,11352,6818,1758,Tag0,unknown
1643178012868,0,85,1.86767578125E-5,51,67,55,375241,78124,21804,16746571,12250,11352,6818,1758,Tag0,unknown
1643178012884,0,117,2.5708007812499998E-5,51,67,55,375241,78124,21804,16746571,12250,11352,6818,1758,Tag0,unknown
1643178012885,0,-126,-2.7685546875E-5,51,67,55,375241,78124,21804,16746571,12250,11352,6818,1758,Tag0,unknown
1643178012886,0,75,1.64794921875E-5,51,67,55,375241,78124,21804,16746571,12250,11352,6818,1758,Tag0,unknown
1643178012899,0,-126,-2.7685546875E-5,51,67,55,375241,78124,21804,16746571,12250,11352,6818,1758,Tag0,unknown
1643178012900,0,109,2.39501953125E-5,51,67,55,375241,78124,21804,16746571,12250,11352,6818,1758,Tag0,unknown
1643178012917,0,90,1.9775390625E-5,51,67,55,375241,78124,21804,16746571,12250,11352,6818,1758,Tag0,unknown
1643178012918,0,76,1.669921875E-5,51,67,55,375241,78124,21804,16746571,12250,11352,6818,1758,Tag0,unknown
1643178012919,0,40,8.7890625E-6,51,67,55,375241,78124,21804,16746571,12250,11352,6818,1758,Tag0,unknown
1643178012935,0,38,8.349609375E-6,51,67,55,375241,78124,21804,16746571,12250,11352,6818,1758,Tag0,unknown
1643178012950,0,36,7.91015625E-6,51,67,55,375241,78124,21804,16746571,12250,11352,6818,1758,Tag0,unknown
1643178012951,0,37,8.1298828125E-6,51,67,55,375241,78124,21804,16746571,12250,11352,6818,1758,Tag0,unknown
1643178012968,0,29,6.3720703125E-6,51,67,55,375241,78124,21804,16746571,12250,11352,6818,1758,Tag0,unknown
1643178012969,0,18,3.955078125E-6,51,67,55,375241,78124,21804,16746571,12250,11352,6818,1758,Tag0,unknown
1643178012970,0,-300,-6.591796875E-5,51,67,55,375241,78124,21804,16746571,12250,11352,6818,1758,Tag0,unknown
1643178012971,0,-299,-6.56982421875E-5,51,67,55,375241,78124,21804,16746571,12250,11352,6818,1758,Tag0,unknown
1643178012984,0,-313,-6.87744140625E-5,51,67,55,375241,78124,21804,16746571,12250,11352,6818,1758,Tag0,unknown
1643178013001,0,-305,-6.70166015625E-5,51,67,55,375241,78124,21804,16746571,12250,11352,6818,1758,Tag0,unknown
1643178013030,0,-265,-5.82275390625E-5,51,67,55,375241,78124,21804,16746571,12250,11352,6818,1758,Tag0,unknown
1643178013031,0,-267,-5.86669921875E-5,51,67,55,375241,78124,21804,16746571,12250,11352,6818,1758,Tag0,unknown
1643178013052,0,-266,-5.8447265625E-5,51,67,55,375241,78124,21804,16746571,12250,11352,6818,1758,Tag0,unknown
1643178013053,0,-305,-6.70166015625E-5,51,67,55,375241,78124,21804,16746571,12250,11352,6818,1758,Tag0,unknown
1643178013054,0,-307,-6.74560546875E-5,51,67,55,375241,78124,21804,16746571,12250,11352,6818,1758,Tag0,unknown
1643178013055,0,-276,-6.064453125E-5,51,67,55,375241,78124,21804,16746571,12250,11352,6818,1758,Tag0,unknown
1643178013056,0,-309,-6.78955078125E-5,51,67,55,375241,78124,21804,16746571,12250,11352,6818,1758,Tag0,unknown
1643178013057,0,-299,-6.56982421875E-5,51,67,55,375241,78124,21804,16746571,12250,11352,6818,1758,Tag0,unknown
1643178013066,0,-308,-6.767578125E-5,51,67,55,375241,78124,21804,16746571,12250,11352,6818,1758,Tag0,unknown
1643178013067,0,-262,-5.7568359375E-5,51,67,55,375241,78124,21804,16746571,12250,11352,6818,1758,Tag0,unknown
1643178013068,0,19,4.1748046875E-6,51,67,55,375241,78124,21804,16746571,12250,11352,6818,1758,Tag0,unknown
1643178013084,0,33,7.2509765625E-6,51,67,55,375241,78124,21804,16746571,12250,11352,6818,1758,Tag0,unknown
1643178013085,0,39,8.5693359375E-6,51,67,55,375241,78124,21804,16746571,12250,11352,6818,1758,Tag0,unknown
1643178013086,0,83,1.82373046875E-5,51,67,55,375241,78124,21804,16746571,12250,11352,6818,1758,Tag0,unknown
1643178013100,0,85,1.86767578125E-5,51,67,55,375241,78124,21804,16746571,12250,11352,6818,1758,Tag0,unknown
1643178013101,0,106,2.3291015625000003E-5,51,67,55,375241,78124,21804,16746571,12250,11352,6818,1758,Tag0,unknown
1643178013115,0,96,2.109375E-5,51,67,55,375241,78124,21804,16746571,12250,11352,6818,1758,Tag0,unknown
1643178013116,0,81,1.77978515625E-5,51,67,55,375241,78124,21804,16746571,12250,11352,6818,1758,Tag0,unknown
1643178013134,0,104,2.28515625E-5,51,67,55,375241,78124,21804,16746571,12250,11352,6818,1758,Tag0,unknown
1643178013135,0,84,1.8457031250000004E-5,51,67,55,375241,78124,21804,16746571,12250,11352,6818,1758,Tag0,unknown
1643178013136,0,99,2.1752929687500003E-5,51,67,55,375241,78124,21804,16746571,12250,11352,6818,1758,Tag0,unknown
1643178013150,0,103,2.26318359375E-5,51,67,55,375241,78124,21804,16746571,12250,11352,6818,1758,Tag0,unknown
1643178013151,0,100,2.197265625E-5,51,67,55,375241,78124,21804,16746571,12250,11352,6818,1758,Tag0,unknown
1643178013152,0,103,2.26318359375E-5,51,67,55,375241,78124,21804,16746571,12250,11352,6818,1758,Tag0,unknown
1643178013153,0,-128,-2.8125E-5,51,67,55,375241,78124,21804,16746571,12250,11352,6818,1758,Tag0,unknown
1643178013169,0,-123,-2.70263671875E-5,51,67,55,375241,78124,21804,16746571,12250,11352,6818,1758,Tag0,unknown
1643178013171,0,123,2.70263671875E-5,51,67,55,375241,78124,21804,16746571,12250,11352,6818,1758,Tag0,unknown
1643178013172,0,120,2.63671875E-5,51,67,55,375241,78124,21804,16746571,12250,11352,6818,1758,Tag0,unknown
1643178013173,0,-93,-2.04345703125E-5,51,67,55,375241,78124,21804,16746571,12250,11352,6818,1758,Tag0,unknown
1643178013184,0,-122,-2.6806640625E-5,51,67,55,375241,78124,21804,16746571,12250,11352,6818,1758,Tag0,unknown
1643178013185,0,-128,-2.8125E-5,51,67,55,375241,78124,21804,16746571,12250,11352,6818,1758,Tag0,unknown
1643178013186,0,-111,-2.43896484375E-5,51,67,55,375241,78124,21804,16746571,12250,11352,6818,1758,Tag0,unknown
1643178013199,0,100,2.197265625E-5,51,67,55,375241,78124,21804,16746571,12250,11352,6818,1758,Tag0,unknown
1643178013200,0,84,1.8457031250000004E-5,51,67,55,375241,78124,21804,16746571,12250,11352,6818,1758,Tag0,unknown
1643178013201,0,34,7.4707031250000005E-6,51,67,55,375241,78124,21804,16746571,12250,11352,6818,1758,Tag0,unknown
1643178013216,0,74,1.6259765625E-5,51,67,55,375241,78124,21804,16746571,12250,11352,6818,1758,Tag0,unknown
1643178013217,0,98,2.1533203125E-5,51,67,55,375241,78124,21804,16746571,12250,11352,6818,1758,Tag0,unknown
1643178013233,0,87,1.91162109375E-5,51,67,55,375241,78124,21804,16746571,12250,11352,6818,1758,Tag0,unknown
1643178013234,0,86,1.8896484375000003E-5,51,67,55,375241,78124,21804,16746571,12250,11352,6818,1758,Tag0,unknown
1643178013235,0,85,1.86767578125E-5,51,67,55,375241,78124,21804,16746571,12250,11352,6818,1758,Tag0,unknown
1643178013250,0,35,7.6904296875E-6,51,67,55,375241,78124,21804,16746571,12250,11352,6818,1758,Tag0,unknown
1643178013251,0,50,1.0986328125E-5,51,67,55,375241,78124,21804,16746571,12250,11352,6818,1758,Tag0,unknown
1643178013252,0,53,1.1645507812500002E-5,51,67,55,375241,78124,21804,16746571,12250,11352,6818,1758,Tag0,unknown
1643178013271,0,16,3.515625E-6,51,67,55,375241,78124,21804,16746571,12250,11352,6818,1758,Tag0,unknown
1643178013272,0,12,2.63671875E-6,51,67,55,375241,78124,21804,16746571,12250,11352,6818,1758,Tag0,unknown
1643178013273,0,66,1.4501953125E-5,51,67,55,375241,78124,21804,16746571,12250,11352,6818,1758,Tag0,unknown
1643178013284,0,87,1.91162109375E-5,51,67,55,375241,78124,21804,16746571,12250,11352,6818,1758,Tag0,unknown
1643178013285,0,85,1.86767578125E-5,51,67,55,375241,78124,21804,16746571,12250,11352,6818,1758,Tag0,unknown
1643178013286,0,27,5.9326171875000005E-6,51,67,55,375241,78124,21804,16746571,12250,11352,6818,1758,Tag0,unknown
1643178013301,0,66,1.4501953125E-5,51,67,55,375241,78124,21804,16746571,12250,11352,6818,1758,Tag0,unknown
1643178013302,0,65,1.42822265625E-5,51,67,55,375241,78124,21804,16746571,12250,11352,6818,1758,Tag0,unknown
1643178013303,0,70,1.5380859375E-5,51,67,55,375241,78124,21804,16746571,12250,11352,6818,1758,Tag0,unknown
1643178013316,0,27,5.9326171875000005E-6,51,67,55,375241,78124,21804,16746571,12250,11352,6818,1758,Tag0,unknown
1643178013317,0,67,1.4721679687500002E-5,51,67,55,375241,78124,21804,16746571,12250,11352,6818,1758,Tag0,unknown
1643178013334,0,29,6.3720703125E-6,51,67,55,375241,78124,21804,16746571,12250,11352,6818,1758,Tag0,unknown
1643178013335,0,11,2.4169921875E-6,51,67,55,375241,78124,21804,16746571,12250,11352,6818,1758,Tag0,unknown
1643178013336,0,25,5.4931640625E-6,51,67,55,375241,78124,21804,16746571,12250,11352,6818,1758,Tag0,unknown
1643178013350,0,22,4.833984375E-6,51,67,55,375241,78124,21804,16746571,12250,11352,6818,1758,Tag0,unknown
1643178013351,0,28,6.15234375E-6,51,67,55,375241,78124,21804,16746571,12250,11352,6818,1758,Tag0,unknown
1643178013367,0,8,1.7578125E-6,51,67,55,375241,78124,21804,16746571,12250,11352,6818,1758,Tag0,unknown
1643178013368,0,28,6.15234375E-6,51,67,55,375241,78124,21804,16746571,12250,11352,6818,1758,Tag0,unknown
1643178013369,0,34,7.4707031250000005E-6,51,67,55,375241,78124,21804,16746571,12250,11352,6818,1758,Tag0,unknown
1643178013370,0,26,5.712890625E-6,51,67,55,375241,78124,21804,16746571,12250,11352,6818,1758,Tag0,unknown
1643178013383,0,25,5.4931640625E-6,51,67,55,375241,78124,21804,16746571,12250,11352,6818,1758,Tag0,unknown
1643178013384,0,32,7.03125E-6,51,67,55,375241,78124,21804,16746571,12250,11352,6818,1758,Tag0,unknown
1643178013398,0,65,1.42822265625E-5,51,67,55,375241,78124,21804,16746571,12250,11352,6818,1758,Tag0,unknown
1643178013399,0,75,1.64794921875E-5,51,67,55,375241,78124,21804,16746571,12250,11352,6818,1758,Tag0,unknown
1643178013400,0,19,4.1748046875E-6,51,67,55,375241,78124,21804,16746571,12250,11352,6818,1758,Tag0,unknown
1643178013418,0,32,7.03125E-6,51,67,55,375241,78124,21804,16746571,12250,11352,6818,1758,Tag0,unknown
1643178013419,0,-263,-5.7788085937500005E-5,51,67,55,375241,78124,21804,16746571,12250,11352,6818,1758,Tag0,unknown
1643178013420,0,18,3.955078125E-6,51,67,55,375241,78124,21804,16746571,12250,11352,6818,1758,Tag0,unknown
1643178013436,0,57,1.2524414062500001E-5,51,67,55,375241,78124,21804,16746571,12250,11352,6818,1758,Tag0,unknown
1643178013437,0,93,2.04345703125E-5,51,67,55,375241,78124,21804,16746571,12250,11352,6818,1758,Tag0,unknown
1643178013451,0,100,2.197265625E-5,51,67,55,375241,78124,21804,16746571,12250,11352,6818,1758,Tag0,unknown
1643178013452,0,67,1.4721679687500002E-5,51,67,55,375241,78124,21804,16746571,12250,11352,6818,1758,Tag0,unknown
1643178013453,0,20,4.39453125E-6,51,67,55,375241,78124,21804,16746571,12250,11352,6818,1758,Tag0,unknown
1643178013468,0,-261,-5.73486328125E-5,51,67,55,375241,78124,21804,16746571,12250,11352,6818,1758,Tag0,unknown
1643178013469,0,64,1.40625E-5,51,67,55,375241,78124,21804,16746571,12250,11352,6818,1758,Tag0,unknown
1643178013485,0,70,1.5380859375E-5,51,67,55,375241,78124,21804,16746571,12250,11352,6818,1758,Tag0,unknown
1643178013486,0,73,1.6040039062500002E-5,51,67,55,375241,78124,21804,16746571,12250,11352,6818,1758,Tag0,unknown
1643178013487,0,26,5.712890625E-6,51,67,55,375241,78124,21804,16746571,12250,11352,6818,1758,Tag0,unknown
1643178013488,0,11,2.4169921875E-6,51,67,55,375241,78124,21804,16746571,12250,11352,6818,1758,Tag0,unknown
1643178013489,0,60,1.318359375E-5,51,67,55,375241,78124,21804,16746571,12250,11352,6818,1758,Tag0,unknown
1643178013500,0,44,9.66796875E-6,51,67,55,375241,78124,21804,16746571,12250,11352,6818,1758,Tag0,unknown
1643178013501,0,80,1.7578125E-5,51,67,55,375241,78124,21804,16746571,12250,11352,6818,1758,Tag0,unknown
1643178013518,0,64,1.40625E-5,51,67,55,375241,78124,21804,16746571,12250,11352,6818,1758,Tag0,unknown
1643178013519,0,21,4.614257812500001E-6,51,67,55,375241,78124,21804,16746571,12250,11352,6818,1758,Tag0,unknown
1643178013534,0,1,2.197265625E-7,51,67,55,375241,78124,21804,16746571,12250,11352,6818,1758,Tag0,unknown
1643178013535,0,2,4.39453125E-7,51,67,55,375241,78124,21804,16746571,12250,11352,6818,1758,Tag0,unknown
1643178013536,0,72,1.58203125E-5,51,67,55,375241,78124,21804,16746571,12250,11352,6818,1758,Tag0,unknown
1643178013552,0,60,1.318359375E-5,51,67,55,375241,78124,21804,16746571,12250,11352,6818,1758,Tag0,unknown
1643178013553,0,34,7.4707031250000005E-6,51,67,55,375241,78124,21804,16746571,12250,11352,6818,1758,Tag0,unknown
1643178013569,0,25,5.4931640625E-6,51,67,55,375241,78124,21804,16746571,12250,11352,6818,1758,Tag0,unknown
1643178013570,0,12,2.63671875E-6,51,67,55,375241,78124,21804,16746571,12250,11352,6818,1758,Tag0,unknown
1643178013571,0,58,1.2744140625E-5,51,67,55,375241,78124,21804,16746571,12250,11352,6818,1758,Tag0,unknown
1643178013572,0,36,7.91015625E-6,51,67,55,375241,78124,21804,16746571,12250,11352,6818,1758,Tag0,unknown
1643178013573,0,-286,-6.2841796875E-5,51,67,55,375241,78124,21804,16746571,12250,11352,6818,1758,Tag0,unknown
1643178013584,0,-292,-6.416015625000001E-5,51,67,55,375241,78124,21804,16746571,12250,11352,6818,1758,Tag0,unknown
1643178013585,0,-342,-7.5146484375E-5,51,67,55,375241,78124,21804,16746571,12250,11352,6818,1758,Tag0,unknown
1643178013602,0,-353,-7.75634765625E-5,56,53,55,98991,16754216,3822,1003,1246,3178,162,270,Tag0,unknown
1643178013603,0,-369,-8.10791015625E-5,56,53,55,98991,16754216,3822,1003,1246,3178,162,270,Tag0,unknown
1643178013618,0,-307,-6.74560546875E-5,56,53,55,98991,16754216,3822,1003,1246,3178,162,270,Tag0,unknown
1643178013619,0,-300,-6.591796875E-5,56,53,55,98991,16754216,3822,1003,1246,3178,162,270,Tag0,unknown
1643178013620,0,-338,-7.426757812499999E-5,56,53,55,98991,16754216,3822,1003,1246,3178,162,270,Tag0,unknown
1643178013621,0,-131,-2.87841796875E-5,56,53,55,98991,16754216,3822,1003,1246,3178,162,270,Tag0,unknown
1643178013635,0,-156,-3.427734375E-5,56,53,55,98991,16754216,3822,1003,1246,3178,162,270,Tag0,unknown
1643178013636,0,-363,-7.97607421875E-5,56,53,55,98991,16754216,3822,1003,1246,3178,162,270,Tag0,unknown
1643178013652,0,-309,-6.78955078125E-5,56,53,55,98991,16754216,3822,1003,1246,3178,162,270,Tag0,unknown
1643178013653,0,-331,-7.272949218750001E-5,56,53,55,98991,16754216,3822,1003,1246,3178,162,270,Tag0,unknown
1643178013668,0,-284,-6.240234375E-5,56,53,55,98991,16754216,3822,1003,1246,3178,162,270,Tag0,unknown
1643178013669,0,25,5.4931640625E-6,56,53,55,98991,16754216,3822,1003,1246,3178,162,270,Tag0,unknown
1643178013685,0,43,9.448242187500001E-6,56,53,55,98991,16754216,3822,1003,1246,3178,162,270,Tag0,unknown
1643178013686,0,27,5.9326171875000005E-6,56,53,55,98991,16754216,3822,1003,1246,3178,162,270,Tag0,unknown
1643178013706,0,11,2.4169921875E-6,56,53,55,98991,16754216,3822,1003,1246,3178,162,270,Tag0,unknown
1643178013707,0,42,9.228515625000002E-6,56,53,55,98991,16754216,3822,1003,1246,3178,162,270,Tag0,unknown
1643178013708,0,-51,-1.1206054687499999E-5,56,53,55,98991,16754216,3822,1003,1246,3178,162,270,Tag0,unknown
1643178013709,0,48,1.0546875E-5,56,53,55,98991,16754216,3822,1003,1246,3178,162,270,Tag0,unknown
1643178013718,0,73,1.6040039062500002E-5,56,53,55,98991,16754216,3822,1003,1246,3178,162,270,Tag0,unknown
1643178013719,0,80,1.7578125E-5,56,53,55,98991,16754216,3822,1003,1246,3178,162,270,Tag0,unknown
1643178013740,0,71,1.56005859375E-5,56,53,55,98991,16754216,3822,1003,1246,3178,162,270,Tag0,unknown
1643178013741,0,42,9.228515625000002E-6,56,53,55,98991,16754216,3822,1003,1246,3178,162,270,Tag0,unknown
1643178013742,0,112,2.4609375E-5,56,53,55,98991,16754216,3822,1003,1246,3178,162,270,Tag0,unknown
1643178013752,0,89,1.95556640625E-5,56,53,55,98991,16754216,3822,1003,1246,3178,162,270,Tag0,unknown
1643178013753,0,101,2.2192382812500002E-5,56,53,55,98991,16754216,3822,1003,1246,3178,162,270,Tag0,unknown
1643178013768,0,108,2.3730468750000002E-5,56,53,55,98991,16754216,3822,1003,1246,3178,162,270,Tag0,unknown
1643178013769,0,61,1.34033203125E-5,56,53,55,98991,16754216,3822,1003,1246,3178,162,270,Tag0,unknown
1643178013770,0,33,7.2509765625E-6,56,53,55,98991,16754216,3822,1003,1246,3178,162,270,Tag0,unknown
1643178013786,0,58,1.2744140625E-5,56,53,55,98991,16754216,3822,1003,1246,3178,162,270,Tag0,unknown
1643178013787,0,80,1.7578125E-5,56,53,55,98991,16754216,3822,1003,1246,3178,162,270,Tag0,unknown
1643178013788,0,54,1.1865234375000001E-5,56,53,55,98991,16754216,3822,1003,1246,3178,162,270,Tag0,unknown
1643178013801,0,107,2.35107421875E-5,56,53,55,98991,16754216,3822,1003,1246,3178,162,270,Tag0,unknown
1643178013802,0,-273,-5.998535156250001E-5,56,53,55,98991,16754216,3822,1003,1246,3178,162,270,Tag0,unknown
1643178013820,0,18,3.955078125E-6,56,53,55,98991,16754216,3822,1003,1246,3178,162,270,Tag0,unknown
1643178013821,0,-99,-2.1752929687500003E-5,56,53,55,98991,16754216,3822,1003,1246,3178,162,270,Tag0,unknown
1643178013822,0,92,2.021484375E-5,56,53,55,98991,16754216,3822,1003,1246,3178,162,270,Tag0,unknown
1643178013836,0,72,1.58203125E-5,56,53,55,98991,16754216,3822,1003,1246,3178,162,270,Tag0,unknown
1643178013837,0,-308,-6.767578125E-5,56,53,55,98991,16754216,3822,1003,1246,3178,162,270,Tag0,unknown
1643178013853,0,98,2.1533203125E-5,56,53,55,98991,16754216,3822,1003,1246,3178,162,270,Tag0,unknown
1643178013854,0,-86,-1.8896484375000003E-5,56,53,55,98991,16754216,3822,1003,1246,3178,162,270,Tag0,unknown
1643178013855,0,-301,-6.613769531250001E-5,56,53,55,98991,16754216,3822,1003,1246,3178,162,270,Tag0,unknown
1643178013869,0,-342,-7.5146484375E-5,56,53,55,98991,16754216,3822,1003,1246,3178,162,270,Tag0,unknown
1643178013870,0,-133,-2.92236328125E-5,56,53,55,98991,16754216,3822,1003,1246,3178,162,270,Tag0,unknown
1643178013886,0,120,2.63671875E-5,56,53,55,98991,16754216,3822,1003,1246,3178,162,270,Tag0,unknown
1643178013887,0,-353,-7.75634765625E-5,56,53,55,98991,16754216,3822,1003,1246,3178,162,270,Tag0,unknown
1643178013888,0,59,1.29638671875E-5,56,53,55,98991,16754216,3822,1003,1246,3178,162,270,Tag0,unknown
1643178013889,0,-324,-7.119140625E-5,56,53,55,98991,16754216,3822,1003,1246,3178,162,270,Tag0,unknown
1643178013902,0,-324,-7.119140625E-5,56,53,55,98991,16754216,3822,1003,1246,3178,162,270,Tag0,unknown
1643178013903,0,-262,-5.7568359375E-5,56,53,55,98991,16754216,3822,1003,1246,3178,162,270,Tag0,unknown
1643178013918,0,20,4.39453125E-6,56,53,55,98991,16754216,3822,1003,1246,3178,162,270,Tag0,unknown
1643178013919,0,21,4.614257812500001E-6,56,53,55,98991,16754216,3822,1003,1246,3178,162,270,Tag0,unknown
1643178013920,0,116,2.548828125E-5,56,53,55,98991,16754216,3822,1003,1246,3178,162,270,Tag0,unknown
1643178013935,0,89,1.95556640625E-5,56,53,55,98991,16754216,3822,1003,1246,3178,162,270,Tag0,unknown
1643178013936,0,39,8.5693359375E-6,56,53,55,98991,16754216,3822,1003,1246,3178,162,270,Tag0,unknown
1643178013937,0,52,1.142578125E-5,56,53,55,98991,16754216,3822,1003,1246,3178,162,270,Tag0,unknown
1643178013953,0,57,1.2524414062500001E-5,56,53,55,98991,16754216,3822,1003,1246,3178,162,270,Tag0,unknown
1643178013954,0,18,3.955078125E-6,56,53,55,98991,16754216,3822,1003,1246,3178,162,270,Tag0,unknown
1643178013970,0,119,2.6147460937500004E-5,56,53,55,98991,16754216,3822,1003,1246,3178,162,270,Tag0,unknown
1643178013971,0,-123,-2.70263671875E-5,56,53,55,98991,16754216,3822,1003,1246,3178,162,270,Tag0,unknown
1643178013972,0,-108,-2.3730468750000002E-5,56,53,55,98991,16754216,3822,1003,1246,3178,162,270,Tag0,unknown
1643178013985,0,67,1.4721679687500002E-5,56,53,55,98991,16754216,3822,1003,1246,3178,162,270,Tag0,unknown
1643178013986,0,93,2.04345703125E-5,56,53,55,98991,16754216,3822,1003,1246,3178,162,270,Tag0,unknown
1643178013987,0,93,2.04345703125E-5,56,53,55,98991,16754216,3822,1003,1246,3178,162,270,Tag0,unknown
1643178013989,0,115,2.52685546875E-5,56,53,55,98991,16754216,3822,1003,1246,3178,162,270,Tag0,unknown
1643178014003,0,80,1.7578125E-5,56,53,55,98991,16754216,3822,1003,1246,3178,162,270,Tag0,unknown
1643178014004,0,100,2.197265625E-5,56,53,55,98991,16754216,3822,1003,1246,3178,162,270,Tag0,unknown
1643178014018,0,69,1.51611328125E-5,56,53,55,98991,16754216,3822,1003,1246,3178,162,270,Tag0,unknown
1643178014019,0,64,1.40625E-5,56,53,55,98991,16754216,3822,1003,1246,3178,162,270,Tag0,unknown
1643178014040,0,5,1.0986328125E-6,56,53,55,98991,16754216,3822,1003,1246,3178,162,270,Tag0,unknown
1643178014051,0,81,1.77978515625E-5,56,53,55,98991,16754216,3822,1003,1246,3178,162,270,Tag0,unknown
1643178014052,0,103,2.26318359375E-5,56,53,55,98991,16754216,3822,1003,1246,3178,162,270,Tag0,unknown
1643178014053,0,44,9.66796875E-6,56,53,55,98991,16754216,3822,1003,1246,3178,162,270,Tag0,unknown
1643178014054,0,-285,-6.26220703125E-5,56,53,55,98991,16754216,3822,1003,1246,3178,162,270,Tag0,unknown
1643178014071,0,-322,-7.0751953125E-5,56,53,55,98991,16754216,3822,1003,1246,3178,162,270,Tag0,unknown
1643178014072,0,-315,-6.92138671875E-5,56,53,55,98991,16754216,3822,1003,1246,3178,162,270,Tag0,unknown
1643178014073,0,-305,-6.70166015625E-5,56,53,55,98991,16754216,3822,1003,1246,3178,162,270,Tag0,unknown
1643178014086,0,-305,-6.70166015625E-5,56,53,55,98991,16754216,3822,1003,1246,3178,162,270,Tag0,unknown
1643178014087,0,-281,-6.17431640625E-5,56,53,55,98991,16754216,3822,1003,1246,3178,162,270,Tag0,unknown
1643178014105,0,-260,-5.712890625E-5,56,53,55,98991,16754216,3822,1003,1246,3178,162,270,Tag0,unknown
1643178014106,0,-289,-6.35009765625E-5,56,53,55,98991,16754216,3822,1003,1246,3178,162,270,Tag0,unknown
1643178014120,0,16,3.515625E-6,56,53,55,98991,16754216,3822,1003,1246,3178,162,270,Tag0,unknown
1643178014121,0,10,2.197265625E-6,56,53,55,98991,16754216,3822,1003,1246,3178,162,270,Tag0,unknown
1643178014137,0,42,9.228515625000002E-6,56,53,55,98991,16754216,3822,1003,1246,3178,162,270,Tag0,unknown
1643178014138,0,-261,-5.73486328125E-5,56,53,55,98991,16754216,3822,1003,1246,3178,162,270,Tag0,unknown
1643178014139,0,59,1.29638671875E-5,56,53,55,98991,16754216,3822,1003,1246,3178,162,270,Tag0,unknown
1643178014153,0,55,1.20849609375E-5,56,53,55,98991,16754216,3822,1003,1246,3178,162,270,Tag0,unknown
1643178014154,0,57,1.2524414062500001E-5,56,53,55,98991,16754216,3822,1003,1246,3178,162,270,Tag0,unknown
1643178014169,0,36,7.91015625E-6,56,53,55,98991,16754216,3822,1003,1246,3178,162,270,Tag0,unknown
1643178014170,0,40,8.7890625E-6,56,53,55,98991,16754216,3822,1003,1246,3178,162,270,Tag0,unknown
1643178014171,0,27,5.9326171875000005E-6,56,53,55,98991,16754216,3822,1003,1246,3178,162,270,Tag0,unknown
1643178014186,0,41,9.008789062499999E-6,56,53,55,98991,16754216,3822,1003,1246,3178,162,270,Tag0,unknown
1643178014187,0,70,1.5380859375E-5,56,53,55,98991,16754216,3822,1003,1246,3178,162,270,Tag0,unknown
1643178014188,0,48,1.0546875E-5,56,53,55,98991,16754216,3822,1003,1246,3178,162,270,Tag0,unknown
1643178014204,0,11,2.4169921875E-6,56,53,55,98991,16754216,3822,1003,1246,3178,162,270,Tag0,unknown
1643178014205,0,39,8.5693359375E-6,56,53,55,98991,16754216,3822,1003,1246,3178,162,270,Tag0,unknown
1643178014222,0,16,3.515625E-6,56,53,55,98991,16754216,3822,1003,1246,3178,162,270,Tag0,unknown
1643178014236,0,4,8.7890625E-7,56,53,55,98991,16754216,3822,1003,1246,3178,162,270,Tag0,unknown
1643178014237,0,6,1.318359375E-6,56,53,55,98991,16754216,3822,1003,1246,3178,162,270,Tag0,unknown
1643178014238,0,8,1.7578125E-6,56,53,55,98991,16754216,3822,1003,1246,3178,162,270,Tag0,unknown
1643178014239,0,-260,-5.712890625E-5,56,53,55,98991,16754216,3822,1003,1246,3178,162,270,Tag0,unknown
1643178014255,0,6,1.318359375E-6,56,53,55,98991,16754216,3822,1003,1246,3178,162,270,Tag0,unknown
1643178014256,0,5,1.0986328125E-6,56,53,55,98991,16754216,3822,1003,1246,3178,162,270,Tag0,unknown
1643178014269,0,23,5.0537109375E-6,56,53,55,98991,16754216,3822,1003,1246,3178,162,270,Tag0,unknown
1643178014270,0,16,3.515625E-6,56,53,55,98991,16754216,3822,1003,1246,3178,162,270,Tag0,unknown
1643178014271,0,48,1.0546875E-5,56,53,55,98991,16754216,3822,1003,1246,3178,162,270,Tag0,unknown
1643178014288,0,25,5.4931640625E-6,56,53,55,98991,16754216,3822,1003,1246,3178,162,270,Tag0,unknown
1643178014289,0,60,1.318359375E-5,56,53,55,98991,16754216,3822,1003,1246,3178,162,270,Tag0,unknown
1643178014290,0,65,1.42822265625E-5,56,53,55,98991,16754216,3822,1003,1246,3178,162,270,Tag0,unknown
1643178014291,0,-261,-5.73486328125E-5,56,53,55,98991,16754216,3822,1003,1246,3178,162,270,Tag0,unknown
1643178014305,0,32,7.03125E-6,56,53,55,98991,16754216,3822,1003,1246,3178,162,270,Tag0,unknown
1643178014306,0,25,5.4931640625E-6,56,53,55,98991,16754216,3822,1003,1246,3178,162,270,Tag0,unknown
1643178014319,0,91,1.99951171875E-5,56,53,55,98991,16754216,3822,1003,1246,3178,162,270,Tag0,unknown
1643178014320,0,73,1.6040039062500002E-5,56,53,55,98991,16754216,3822,1003,1246,3178,162,270,Tag0,unknown
1643178014321,0,86,1.8896484375000003E-5,56,53,55,98991,16754216,3822,1003,1246,3178,162,270,Tag0,unknown
1643178014338,0,20,4.39453125E-6,56,53,55,98991,16754216,3822,1003,1246,3178,162,270,Tag0,unknown
1643178014339,0,57,1.2524414062500001E-5,56,53,55,98991,16754216,3822,1003,1246,3178,162,270,Tag0,unknown
1643178014353,0,23,5.0537109375E-6,56,53,55,98991,16754216,3822,1003,1246,3178,162,270,Tag0,unknown
1643178014354,0,35,7.6904296875E-6,56,53,55,98991,16754216,3822,1003,1246,3178,162,270,Tag0,unknown
1643178014355,0,58,1.2744140625E-5,56,53,55,98991,16754216,3822,1003,1246,3178,162,270,Tag0,unknown
1643178014371,0,75,1.64794921875E-5,56,53,55,98991,16754216,3822,1003,1246,3178,162,270,Tag0,unknown
1643178014372,0,57,1.2524414062500001E-5,56,53,55,98991,16754216,3822,1003,1246,3178,162,270,Tag0,unknown
1643178014373,0,87,1.91162109375E-5,56,53,55,98991,16754216,3822,1003,1246,3178,162,270,Tag0,unknown
1643178014389,0,34,7.4707031250000005E-6,56,53,55,98991,16754216,3822,1003,1246,3178,162,270,Tag0,unknown
1643178014390,0,11,2.4169921875E-6,56,53,55,98991,16754216,3822,1003,1246,3178,162,270,Tag0,unknown
1643178014391,0,37,8.1298828125E-6,56,53,55,98991,16754216,3822,1003,1246,3178,162,270,Tag0,unknown
1643178014392,0,70,1.5380859375E-5,56,53,55,98991,16754216,3822,1003,1246,3178,162,270,Tag0,unknown
1643178014404,0,81,1.77978515625E-5,56,53,55,98991,16754216,3822,1003,1246,3178,162,270,Tag0,unknown
1643178014405,0,85,1.86767578125E-5,56,53,55,98991,16754216,3822,1003,1246,3178,162,270,Tag0,unknown
1643178014420,0,53,1.1645507812500002E-5,56,53,55,98991,16754216,3822,1003,1246,3178,162,270,Tag0,unknown
1643178014421,0,73,1.6040039062500002E-5,56,53,55,98991,16754216,3822,1003,1246,3178,162,270,Tag0,unknown
1643178014422,0,44,9.66796875E-6,56,53,55,98991,16754216,3822,1003,1246,3178,162,270,Tag0,unknown
1643178014438,0,48,1.0546875E-5,56,53,55,98991,16754216,3822,1003,1246,3178,162,270,Tag0,unknown
1643178014439,0,72,1.58203125E-5,56,53,55,98991,16754216,3822,1003,1246,3178,162,270,Tag0,unknown
1643178014440,0,32,7.03125E-6,56,53,55,98991,16754216,3822,1003,1246,3178,162,270,Tag0,unknown
1643178014453,0,44,9.66796875E-6,56,53,55,98991,16754216,3822,1003,1246,3178,162,270,Tag0,unknown
1643178014454,0,23,5.0537109375E-6,56,53,55,98991,16754216,3822,1003,1246,3178,162,270,Tag0,unknown
1643178014470,0,86,1.8896484375000003E-5,56,53,55,98991,16754216,3822,1003,1246,3178,162,270,Tag0,unknown
1643178014471,0,85,1.86767578125E-5,56,53,55,98991,16754216,3822,1003,1246,3178,162,270,Tag0,unknown
1643178014472,0,8,1.7578125E-6,56,53,55,98991,16754216,3822,1003,1246,3178,162,270,Tag0,unknown
1643178014487,0,-275,-6.04248046875E-5,56,53,55,98991,16754216,3822,1003,1246,3178,162,270,Tag0,unknown
1643178014488,0,7,1.5380859375E-6,56,53,55,98991,16754216,3822,1003,1246,3178,162,270,Tag0,unknown
1643178014489,0,34,7.4707031250000005E-6,56,53,55,98991,16754216,3822,1003,1246,3178,162,270,Tag0,unknown
1643178014504,0,51,1.1206054687499999E-5,56,53,55,98991,16754216,3822,1003,1246,3178,162,270,Tag0,unknown
1643178014505,0,84,1.8457031250000004E-5,56,53,55,98991,16754216,3822,1003,1246,3178,162,270,Tag0,unknown
1643178014521,0,55,1.20849609375E-5,56,53,55,98991,16754216,3822,1003,1246,3178,162,270,Tag0,unknown
1643178014522,0,59,1.29638671875E-5,56,53,55,98991,16754216,3822,1003,1246,3178,162,270,Tag0,unknown
1643178014523,0,92,2.021484375E-5,56,53,55,98991,16754216,3822,1003,1246,3178,162,270,Tag0,unknown
1643178014536,0,92,2.021484375E-5,56,53,55,98991,16754216,3822,1003,1246,3178,162,270,Tag0,unknown
1643178014537,0,71,1.56005859375E-5,56,53,55,98991,16754216,3822,1003,1246,3178,162,270,Tag0,unknown
1643178014554,0,25,5.4931640625E-6,56,53,55,98991,16754216,3822,1003,1246,3178,162,270,Tag0,unknown
1643178014555,0,-257,-5.64697265625E-5,56,53,55,98991,16754216,3822,1003,1246,3178,162,270,Tag0,unknown
1643178014556,0,-301,-6.613769531250001E-5,56,53,55,98991,16754216,3822,1003,1246,3178,162,270,Tag0,unknown
1643178014570,0,-265,-5.82275390625E-5,56,53,55,98991,16754216,3822,1003,1246,3178,162,270,Tag0,unknown
1643178014571,0,-324,-7.119140625E-5,56,53,55,98991,16754216,3822,1003,1246,3178,162,270,Tag0,unknown
1643178014587,0,-265,-5.82275390625E-5,56,53,55,98991,16754216,3822,1003,1246,3178,162,270,Tag0,unknown
1643178014588,0,26,5.712890625E-6,56,53,55,98991,16754216,3822,1003,1246,3178,162,270,Tag0,unknown
1643178014589,0,71,1.56005859375E-5,50,54,55,531912,154143,16772874,13496,24965,16509,21386,5399,Tag0,unknown
1643178014607,0,64,1.40625E-5,50,54,55,531912,154143,16772874,13496,24965,16509,21386,5399,Tag0,unknown
1643178014608,0,73,1.6040039062500002E-5,50,54,55,531912,154143,16772874,13496,24965,16509,21386,5399,Tag0,unknown
1643178014609,0,96,2.109375E-5,50,54,55,531912,154143,16772874,13496,24965,16509,21386,5399,Tag0,unknown
1643178014610,0,57,1.2524414062500001E-5,50,54,55,531912,154143,16772874,13496,24965,16509,21386,5399,Tag0,unknown
1643178014619,0,57,1.2524414062500001E-5,50,54,55,531912,154143,16772874,13496,24965,16509,21386,5399,Tag0,unknown
1643178014620,0,38,8.349609375E-6,50,54,55,531912,154143,16772874,13496,24965,16509,21386,5399,Tag0,unknown
1643178014636,0,21,4.614257812500001E-6,50,54,55,531912,154143,16772874,13496,24965,16509,21386,5399,Tag0,unknown
1643178014637,0,16,3.515625E-6,50,54,55,531912,154143,16772874,13496,24965,16509,21386,5399,Tag0,unknown
1643178014638,0,20,4.39453125E-6,50,54,55,531912,154143,16772874,13496,24965,16509,21386,5399,Tag0,unknown
1643178014656,0,12,2.63671875E-6,50,54,55,531912,154143,16772874,13496,24965,16509,21386,5399,Tag0,unknown
1643178014657,0,40,8.7890625E-6,50,54,55,531912,154143,16772874,13496,24965,16509,21386,5399,Tag0,unknown
1643178014672,0,39,8.5693359375E-6,50,54,55,531912,154143,16772874,13496,24965,16509,21386,5399,Tag0,unknown
1643178014673,0,41,9.008789062499999E-6,50,54,55,531912,154143,16772874,13496,24965,16509,21386,5399,Tag0,unknown
1643178014687,0,40,8.7890625E-6,50,54,55,531912,154143,16772874,13496,24965,16509,21386,5399,Tag0,unknown
1643178014688,0,39,8.5693359375E-6,50,54,55,531912,154143,16772874,13496,24965,16509,21386,5399,Tag0,unknown
1643178014689,0,40,8.7890625E-6,50,54,55,531912,154143,16772874,13496,24965,16509,21386,5399,Tag0,unknown
1643178014705,0,43,9.448242187500001E-6,50,54,55,531912,154143,16772874,13496,24965,16509,21386,5399,Tag0,unknown
1643178014706,0,6,1.318359375E-6,50,54,55,531912,154143,16772874,13496,24965,16509,21386,5399,Tag0,unknown
1643178014720,0,11,2.4169921875E-6,50,54,55,531912,154143,16772874,13496,24965,16509,21386,5399,Tag0,unknown
1643178014721,0,0,0.0,50,54,55,531912,154143,16772874,13496,24965,16509,21386,5399,Tag0,unknown
1643178014722,0,-279,-6.13037109375E-5,50,54,55,531912,154143,16772874,13496,24965,16509,21386,5399,Tag0,unknown
1643178014738,0,7,1.5380859375E-6,50,54,55,531912,154143,16772874,13496,24965,16509,21386,5399,Tag0,unknown
1643178014739,0,-278,-6.108398437500001E-5,50,54,55,531912,154143,16772874,13496,24965,16509,21386,5399,Tag0,unknown
1643178014740,0,33,7.2509765625E-6,50,54,55,531912,154143,16772874,13496,24965,16509,21386,5399,Tag0,unknown
1643178014755,0,32,7.03125E-6,50,54,55,531912,154143,16772874,13496,24965,16509,21386,5399,Tag0,unknown
1643178014756,0,36,7.91015625E-6,50,54,55,531912,154143,16772874,13496,24965,16509,21386,5399,Tag0,unknown
1643178014771,0,18,3.955078125E-6,50,54,55,531912,154143,16772874,13496,24965,16509,21386,5399,Tag0,unknown
1643178014772,0,-283,-6.218261718750001E-5,50,54,55,531912,154143,16772874,13496,24965,16509,21386,5399,Tag0,unknown
1643178014773,0,45,9.8876953125E-6,50,54,55,531912,154143,16772874,13496,24965,16509,21386,5399,Tag0,unknown
1643178014789,0,9,1.9775390625E-6,50,54,55,531912,154143,16772874,13496,24965,16509,21386,5399,Tag0,unknown
1643178014790,0,41,9.008789062499999E-6,50,54,55,531912,154143,16772874,13496,24965,16509,21386,5399,Tag0,unknown
1643178014805,0,32,7.03125E-6,50,54,55,531912,154143,16772874,13496,24965,16509,21386,5399,Tag0,unknown
1643178014807,0,35,7.6904296875E-6,50,54,55,531912,154143,16772874,13496,24965,16509,21386,5399,Tag0,unknown
1643178014808,0,5,1.0986328125E-6,50,54,55,531912,154143,16772874,13496,24965,16509,21386,5399,Tag0,unknown
1643178014821,0,12,2.63671875E-6,50,54,55,531912,154143,16772874,13496,24965,16509,21386,5399,Tag0,unknown
1643178014822,0,38,8.349609375E-6,50,54,55,531912,154143,16772874,13496,24965,16509,21386,5399,Tag0,unknown
1643178014837,0,19,4.1748046875E-6,50,54,55,531912,154143,16772874,13496,24965,16509,21386,5399,Tag0,unknown
1643178014838,0,26,5.712890625E-6,50,54,55,531912,154143,16772874,13496,24965,16509,21386,5399,Tag0,unknown
1643178014839,0,39,8.5693359375E-6,50,54,55,531912,154143,16772874,13496,24965,16509,21386,5399,Tag0,unknown
1643178014854,0,38,8.349609375E-6,50,54,55,531912,154143,16772874,13496,24965,16509,21386,5399,Tag0,unknown
1643178014855,0,49,1.07666015625E-5,50,54,55,531912,154143,16772874,13496,24965,16509,21386,5399,Tag0,unknown
1643178014871,0,48,1.0546875E-5,50,54,55,531912,154143,16772874,13496,24965,16509,21386,5399,Tag0,unknown
1643178014872,0,37,8.1298828125E-6,50,54,55,531912,154143,16772874,13496,24965,16509,21386,5399,Tag0,unknown
1643178014873,0,35,7.6904296875E-6,50,54,55,531912,154143,16772874,13496,24965,16509,21386,5399,Tag0,unknown
1643178014889,0,59,1.29638671875E-5,50,54,55,531912,154143,16772874,13496,24965,16509,21386,5399,Tag0,unknown
1643178014904,0,70,1.5380859375E-5,50,54,55,531912,154143,16772874,13496,24965,16509,21386,5399,Tag0,unknown
1643178014905,0,59,1.29638671875E-5,50,54,55,531912,154143,16772874,13496,24965,16509,21386,5399,Tag0,unknown
1643178014906,0,68,1.4941406250000001E-5,50,54,55,531912,154143,16772874,13496,24965,16509,21386,5399,Tag0,unknown
1643178014907,0,37,8.1298828125E-6,50,54,55,531912,154143,16772874,13496,24965,16509,21386,5399,Tag0,unknown
1643178014908,0,17,3.7353515625000003E-6,50,54,55,531912,154143,16772874,13496,24965,16509,21386,5399,Tag0,unknown
1643178014909,0,-283,-6.218261718750001E-5,50,54,55,531912,154143,16772874,13496,24965,16509,21386,5399,Tag0,unknown
1643178014923,0,-298,-6.5478515625E-5,50,54,55,531912,154143,16772874,13496,24965,16509,21386,5399,Tag0,unknown
1643178014924,0,24,5.2734375E-6,50,54,55,531912,154143,16772874,13496,24965,16509,21386,5399,Tag0,unknown
1643178014937,0,-282,-6.1962890625E-5,50,54,55,531912,154143,16772874,13496,24965,16509,21386,5399,Tag0,unknown
1643178014938,0,2,4.39453125E-7,50,54,55,531912,154143,16772874,13496,24965,16509,21386,5399,Tag0,unknown
1643178014955,0,26,5.712890625E-6,50,54,55,531912,154143,16772874,13496,24965,16509,21386,5399,Tag0,unknown
1643178014956,0,39,8.5693359375E-6,50,54,55,531912,154143,16772874,13496,24965,16509,21386,5399,Tag0,unknown
1643178014957,0,16,3.515625E-6,50,54,55,531912,154143,16772874,13496,24965,16509,21386,5399,Tag0,unknown
1643178014972,0,3,6.591796875E-7,50,54,55,531912,154143,16772874,13496,24965,16509,21386,5399,Tag0,unknown
1643178014973,0,0,0.0,50,54,55,531912,154143,16772874,13496,24965,16509,21386,5399,Tag0,unknown
1643178014974,0,28,6.15234375E-6,50,54,55,531912,154143,16772874,13496,24965,16509,21386,5399,Tag0,unknown
1643178014975,0,38,8.349609375E-6,50,54,55,531912,154143,16772874,13496,24965,16509,21386,5399,Tag0,unknown
1643178014988,0,20,4.39453125E-6,50,54,55,531912,154143,16772874,13496,24965,16509,21386,5399,Tag0,unknown
1643178014989,0,13,2.8564453125E-6,50,54,55,531912,154143,16772874,13496,24965,16509,21386,5399,Tag0,unknown
1643178014990,0,26,5.712890625E-6,50,54,55,531912,154143,16772874,13496,24965,16509,21386,5399,Tag0,unknown
1643178014991,0,85,1.86767578125E-5,50,54,55,531912,154143,16772874,13496,24965,16509,21386,5399,Tag0,unknown
1643178015006,0,-309,-6.78955078125E-5,50,54,55,531912,154143,16772874,13496,24965,16509,21386,5399,Tag0,unknown
1643178015007,0,-296,-6.50390625E-5,50,54,55,531912,154143,16772874,13496,24965,16509,21386,5399,Tag0,unknown
1643178015024,0,39,8.5693359375E-6,50,54,55,531912,154143,16772874,13496,24965,16509,21386,5399,Tag0,unknown
1643178015025,0,26,5.712890625E-6,50,54,55,531912,154143,16772874,13496,24965,16509,21386,5399,Tag0,unknown
1643178015026,0,5,1.0986328125E-6,50,54,55,531912,154143,16772874,13496,24965,16509,21386,5399,Tag0,unknown
1643178015037,0,39,8.5693359375E-6,50,54,55,531912,154143,16772874,13496,24965,16509,21386,5399,Tag0,unknown
1643178015038,0,27,5.9326171875000005E-6,50,54,55,531912,154143,16772874,13496,24965,16509,21386,5399,Tag0,unknown
1643178015057,0,6,1.318359375E-6,50,54,55,531912,154143,16772874,13496,24965,16509,21386,5399,Tag0,unknown
1643178015058,0,-275,-6.04248046875E-5,50,54,55,531912,154143,16772874,13496,24965,16509,21386,5399,Tag0,unknown
1643178015059,0,40,8.7890625E-6,50,54,55,531912,154143,16772874,13496,24965,16509,21386,5399,Tag0,unknown
1643178015060,0,49,1.07666015625E-5,50,54,55,531912,154143,16772874,13496,24965,16509,21386,5399,Tag0,unknown
1643178015073,0,68,1.4941406250000001E-5,50,54,55,531912,154143,16772874,13496,24965,16509,21386,5399,Tag0,unknown
1643178015074,0,45,9.8876953125E-6,50,54,55,531912,154143,16772874,13496,24965,16509,21386,5399,Tag0,unknown
1643178015088,0,25,5.4931640625E-6,50,54,55,531912,154143,16772874,13496,24965,16509,21386,5399,Tag0,unknown
1643178015089,0,57,1.2524414062500001E-5,50,54,55,531912,154143,16772874,13496,24965,16509,21386,5399,Tag0,unknown
1643178015090,0,11,2.4169921875E-6,50,54,55,531912,154143,16772874,13496,24965,16509,21386,5399,Tag0,unknown
1643178015091,0,49,1.07666015625E-5,50,54,55,531912,154143,16772874,13496,24965,16509,21386,5399,Tag0,unknown
1643178015105,0,5,1.0986328125E-6,50,54,55,531912,154143,16772874,13496,24965,16509,21386,5399,Tag0,unknown
1643178015106,0,45,9.8876953125E-6,50,54,55,531912,154143,16772874,13496,24965,16509,21386,5399,Tag0,unknown
1643178015107,0,-290,-6.3720703125E-5,50,54,55,531912,154143,16772874,13496,24965,16509,21386,5399,Tag0,unknown
1643178015123,0,24,5.2734375E-6,50,54,55,531912,154143,16772874,13496,24965,16509,21386,5399,Tag0,unknown
1643178015124,0,54,1.1865234375000001E-5,50,54,55,531912,154143,16772874,13496,24965,16509,21386,5399,Tag0,unknown
1643178015139,0,49,1.07666015625E-5,50,54,55,531912,154143,16772874,13496,24965,16509,21386,5399,Tag0,unknown
1643178015140,0,49,1.07666015625E-5,50,54,55,531912,154143,16772874,13496,24965,16509,21386,5399,Tag0,unknown
1643178015158,0,6,1.318359375E-6,50,54,55,531912,154143,16772874,13496,24965,16509,21386,5399,Tag0,unknown
1643178015159,0,97,2.13134765625E-5,50,54,55,531912,154143,16772874,13496,24965,16509,21386,5399,Tag0,unknown
1643178015171,0,-257,-5.64697265625E-5,50,54,55,531912,154143,16772874,13496,24965,16509,21386,5399,Tag0,unknown
1643178015172,0,41,9.008789062499999E-6,50,54,55,531912,154143,16772874,13496,24965,16509,21386,5399,Tag0,unknown
1643178015188,0,35,7.6904296875E-6,50,54,55,531912,154143,16772874,13496,24965,16509,21386,5399,Tag0,unknown
1643178015189,0,19,4.1748046875E-6,50,54,55,531912,154143,16772874,13496,24965,16509,21386,5399,Tag0,unknown
1643178015190,0,6,1.318359375E-6,50,54,55,531912,154143,16772874,13496,24965,16509,21386,5399,Tag0,unknown
1643178015208,0,8,1.7578125E-6,50,54,55,531912,154143,16772874,13496,24965,16509,21386,5399,Tag0,unknown
1643178015209,0,93,2.04345703125E-5,50,54,55,531912,154143,16772874,13496,24965,16509,21386,5399,Tag0,unknown
1643178015223,0,24,5.2734375E-6,50,54,55,531912,154143,16772874,13496,24965,16509,21386,5399,Tag0,unknown
1643178015224,0,52,1.142578125E-5,50,54,55,531912,154143,16772874,13496,24965,16509,21386,5399,Tag0,unknown
1643178015240,0,92,2.021484375E-5,50,54,55,531912,154143,16772874,13496,24965,16509,21386,5399,Tag0,unknown
1643178015241,0,57,1.2524414062500001E-5,50,54,55,531912,154143,16772874,13496,24965,16509,21386,5399,Tag0,unknown
1643178015255,0,73,1.6040039062500002E-5,50,54,55,531912,154143,16772874,13496,24965,16509,21386,5399,Tag0,unknown
1643178015256,0,-260,-5.712890625E-5,50,54,55,531912,154143,16772874,13496,24965,16509,21386,5399,Tag0,unknown
1643178015257,0,-263,-5.7788085937500005E-5,50,54,55,531912,154143,16772874,13496,24965,16509,21386,5399,Tag0,unknown
1643178015274,0,12,2.63671875E-6,50,54,55,531912,154143,16772874,13496,24965,16509,21386,5399,Tag0,unknown
1643178015275,0,-286,-6.2841796875E-5,50,54,55,531912,154143,16772874,13496,24965,16509,21386,5399,Tag0,unknown
1643178015298,0,25,5.4931640625E-6,50,54,55,531912,154143,16772874,13496,24965,16509,21386,5399,Tag0,unknown
1643178015299,0,22,4.833984375E-6,50,54,55,531912,154143,16772874,13496,24965,16509,21386,5399,Tag0,unknown
1643178015305,0,-267,-5.86669921875E-5,50,54,55,531912,154143,16772874,13496,24965,16509,21386,5399,Tag0,unknown
1643178015306,0,29,6.3720703125E-6,50,54,55,531912,154143,16772874,13496,24965,16509,21386,5399,Tag0,unknown
1643178015307,0,-259,-5.69091796875E-5,50,54,55,531912,154143,16772874,13496,24965,16509,21386,5399,Tag0,unknown
1643178015322,0,-266,-5.8447265625E-5,50,54,55,531912,154143,16772874,13496,24965,16509,21386,5399,Tag0,unknown
1643178015323,0,-262,-5.7568359375E-5,50,54,55,531912,154143,16772874,13496,24965,16509,21386,5399,Tag0,unknown
1643178015324,0,-317,-6.96533203125E-5,50,54,55,531912,154143,16772874,13496,24965,16509,21386,5399,Tag0,unknown
1643178015325,0,-281,-6.17431640625E-5,50,54,55,531912,154143,16772874,13496,24965,16509,21386,5399,Tag0,unknown
1643178015339,0,48,1.0546875E-5,50,54,55,531912,154143,16772874,13496,24965,16509,21386,5399,Tag0,unknown
1643178015340,0,5,1.0986328125E-6,50,54,55,531912,154143,16772874,13496,24965,16509,21386,5399,Tag0,unknown
1643178015355,0,-278,-6.108398437500001E-5,50,54,55,531912,154143,16772874,13496,24965,16509,21386,5399,Tag0,unknown
1643178015356,0,8,1.7578125E-6,50,54,55,531912,154143,16772874,13496,24965,16509,21386,5399,Tag0,unknown
1643178015357,0,-291,-6.39404296875E-5,50,54,55,531912,154143,16772874,13496,24965,16509,21386,5399,Tag0,unknown
1643178015373,0,10,2.197265625E-6,50,54,55,531912,154143,16772874,13496,24965,16509,21386,5399,Tag0,unknown
1643178015374,0,40,8.7890625E-6,50,54,55,531912,154143,16772874,13496,24965,16509,21386,5399,Tag0,unknown
1643178015375,0,16,3.515625E-6,50,54,55,531912,154143,16772874,13496,24965,16509,21386,5399,Tag0,unknown
1643178015387,0,13,2.8564453125E-6,50,54,55,531912,154143,16772874,13496,24965,16509,21386,5399,Tag0,unknown
1643178015388,0,17,3.7353515625000003E-6,50,54,55,531912,154143,16772874,13496,24965,16509,21386,5399,Tag0,unknown
1643178015389,0,85,1.86767578125E-5,50,54,55,531912,154143,16772874,13496,24965,16509,21386,5399,Tag0,unknown
1643178015406,0,91,1.99951171875E-5,50,54,55,531912,154143,16772874,13496,24965,16509,21386,5399,Tag0,unknown
1643178015407,0,2,4.39453125E-7,50,54,55,531912,154143,16772874,13496,24965,16509,21386,5399,Tag0,unknown
1643178015408,0,-306,-6.723632812500001E-5,50,54,55,531912,154143,16772874,13496,24965,16509,21386,5399,Tag0,unknown
1643178015409,0,105,2.30712890625E-5,50,54,55,531912,154143,16772874,13496,24965,16509,21386,5399,Tag0,unknown
1643178015410,0,69,1.51611328125E-5,50,54,55,531912,154143,16772874,13496,24965,16509,21386,5399,Tag0,unknown
1643178015423,0,-265,-5.82275390625E-5,50,54,55,531912,154143,16772874,13496,24965,16509,21386,5399,Tag0,unknown
1643178015424,0,121,2.6586914062500003E-5,50,54,55,531912,154143,16772874,13496,24965,16509,21386,5399,Tag0,unknown
1643178015425,0,60,1.318359375E-5,50,54,55,531912,154143,16772874,13496,24965,16509,21386,5399,Tag0,unknown
1643178015426,0,90,1.9775390625E-5,50,54,55,531912,154143,16772874,13496,24965,16509,21386,5399,Tag0,unknown
1643178015440,0,125,2.74658203125E-5,50,54,55,531912,154143,16772874,13496,24965,16509,21386,5399,Tag0,unknown
1643178015441,0,25,5.4931640625E-6,50,54,55,531912,154143,16772874,13496,24965,16509,21386,5399,Tag0,unknown
1643178015456,0,-99,-2.1752929687500003E-5,50,54,55,531912,154143,16772874,13496,24965,16509,21386,5399,Tag0,unknown
1643178015457,0,-126,-2.7685546875E-5,50,54,55,531912,154143,16772874,13496,24965,16509,21386,5399,Tag0,unknown
1643178015474,0,120,2.63671875E-5,50,54,55,531912,154143,16772874,13496,24965,16509,21386,5399,Tag0,unknown
1643178015475,0,34,7.4707031250000005E-6,50,54,55,531912,154143,16772874,13496,24965,16509,21386,5399,Tag0,unknown
1643178015476,0,55,1.20849609375E-5,50,54,55,531912,154143,16772874,13496,24965,16509,21386,5399,Tag0,unknown
1643178015490,0,-340,-7.470703125E-5,50,54,55,531912,154143,16772874,13496,24965,16509,21386,5399,Tag0,unknown
1643178015508,0,71,1.56005859375E-5,50,54,55,531912,154143,16772874,13496,24965,16509,21386,5399,Tag0,unknown
1643178015524,0,44,9.66796875E-6,50,54,55,531912,154143,16772874,13496,24965,16509,21386,5399,Tag0,unknown
1643178015525,0,-292,-6.416015625000001E-5,50,54,55,531912,154143,16772874,13496,24965,16509,21386,5399,Tag0,unknown
1643178015526,0,-309,-6.78955078125E-5,50,54,55,531912,154143,16772874,13496,24965,16509,21386,5399,Tag0,unknown
1643178015527,0,51,1.1206054687499999E-5,50,54,55,531912,154143,16772874,13496,24965,16509,21386,5399,Tag0,unknown
1643178015543,0,44,9.66796875E-6,50,54,55,531912,154143,16772874,13496,24965,16509,21386,5399,Tag0,unknown
1643178015544,0,82,1.8017578124999998E-5,50,54,55,531912,154143,16772874,13496,24965,16509,21386,5399,Tag0,unknown
1643178015556,0,82,1.8017578124999998E-5,50,54,55,531912,154143,16772874,13496,24965,16509,21386,5399,Tag0,unknown
1643178015557,0,-264,-5.80078125E-5,50,54,55,531912,154143,16772874,13496,24965,16509,21386,5399,Tag0,unknown
1643178015558,0,26,5.712890625E-6,50,54,55,531912,154143,16772874,13496,24965,16509,21386,5399,Tag0,unknown
1643178015574,0,-308,-6.767578125E-5,50,54,55,531912,154143,16772874,13496,24965,16509,21386,5399,Tag0,unknown
1643178015575,0,-291,-6.39404296875E-5,50,54,55,531912,154143,16772874,13496,24965,16509,21386,5399,Tag0,unknown
1643178015576,0,8,1.7578125E-6,50,54,55,531912,154143,16772874,13496,24965,16509,21386,5399,Tag0,unknown
1643178015589,0,-152,-3.33984375E-5,50,54,55,531912,154143,16772874,13496,24965,16509,21386,5399,Tag0,unknown
1643178015590,0,-332,-7.294921875E-5,50,54,55,531912,154143,16772874,13496,24965,16509,21386,5399,Tag0,unknown
1643178015608,0,-317,-6.96533203125E-5,54,53,55,145592,16764938,9323,16746837,10303,16878,3971,4091,Tag0,unknown
1643178015609,0,3,6.591796875E-7,54,53,55,145592,16764938,9323,16746837,10303,16878,3971,4091,Tag0,unknown
1643178015610,0,10,2.197265625E-6,54,53,55,145592,16764938,9323,16746837,10303,16878,3971,4091,Tag0,unknown
1643178015623,0,24,5.2734375E-6,54,53,55,145592,16764938,9323,16746837,10303,16878,3971,4091,Tag0,unknown
1643178015624,0,53,1.1645507812500002E-5,54,53,55,145592,16764938,9323,16746837,10303,16878,3971,4091,Tag0,unknown
1643178015640,0,29,6.3720703125E-6,54,53,55,145592,16764938,9323,16746837,10303,16878,3971,4091,Tag0,unknown
1643178015641,0,-260,-5.712890625E-5,54,53,55,145592,16764938,9323,16746837,10303,16878,3971,4091,Tag0,unknown
1643178015656,0,-282,-6.1962890625E-5,54,53,55,145592,16764938,9323,16746837,10303,16878,3971,4091,Tag0,unknown
1643178015657,0,-317,-6.96533203125E-5,54,53,55,145592,16764938,9323,16746837,10303,16878,3971,4091,Tag0,unknown
1643178015658,0,-362,-7.954101562500001E-5,54,53,55,145592,16764938,9323,16746837,10303,16878,3971,4091,Tag0,unknown
1643178015674,0,-364,-7.998046875E-5,54,53,55,145592,16764938,9323,16746837,10303,16878,3971,4091,Tag0,unknown
1643178015675,0,-264,-5.80078125E-5,54,53,55,145592,16764938,9323,16746837,10303,16878,3971,4091,Tag0,unknown
1643178015689,0,12,2.63671875E-6,54,53,55,145592,16764938,9323,16746837,10303,16878,3971,4091,Tag0,unknown
1643178015690,0,89,1.95556640625E-5,54,53,55,145592,16764938,9323,16746837,10303,16878,3971,4091,Tag0,unknown
1643178015707,0,-90,-1.9775390625E-5,54,53,55,145592,16764938,9323,16746837,10303,16878,3971,4091,Tag0,unknown
1643178015708,0,-119,-2.6147460937500004E-5,54,53,55,145592,16764938,9323,16746837,10303,16878,3971,4091,Tag0,unknown
1643178015709,0,-112,-2.4609375E-5,54,53,55,145592,16764938,9323,16746837,10303,16878,3971,4091,Tag0,unknown
1643178015710,0,-39,-8.5693359375E-6,54,53,55,145592,16764938,9323,16746837,10303,16878,3971,4091,Tag0,unknown
1643178015711,0,260,5.712890625E-5,54,53,55,145592,16764938,9323,16746837,10303,16878,3971,4091,Tag0,unknown
1643178015712,0,-64,-1.40625E-5,54,53,41,145592,16764938,9323,16746837,10303,16878,3971,4091,Tag0,unknown
1643178015727,0,-30,-6.591796875E-6,54,53,41,145592,16764938,9323,16746837,10303,16878,3971,4091,Tag0,unknown
1643178015728,0,-105,-2.30712890625E-5,54,53,41,145592,16764938,9323,16746837,10303,16878,3971,4091,Tag0,unknown
1643178015739,0,-110,-2.4169921875E-5,54,53,41,145592,16764938,9323,16746837,10303,16878,3971,4091,Tag0,unknown
1643178015740,0,118,2.5927734375E-5,54,53,41,145592,16764938,9323,16746837,10303,16878,3971,4091,Tag0,unknown
1643178015757,0,115,2.52685546875E-5,54,53,41,145592,16764938,9323,16746837,10303,16878,3971,4091,Tag0,unknown
1643178015758,0,104,2.28515625E-5,54,53,41,145592,16764938,9323,16746837,10303,16878,3971,4091,Tag0,unknown
1643178015776,0,43,9.448242187500001E-6,54,53,41,145592,16764938,9323,16746837,10303,16878,3971,4091,Tag0,unknown
1643178015777,0,66,1.4501953125E-5,54,53,41,145592,16764938,9323,16746837,10303,16878,3971,4091,Tag0,unknown
1643178015778,0,-259,-5.69091796875E-5,54,53,41,145592,16764938,9323,16746837,10303,16878,3971,4091,Tag0,unknown
1643178015789,0,26,5.712890625E-6,54,53,41,145592,16764938,9323,16746837,10303,16878,3971,4091,Tag0,unknown
1643178015790,0,36,7.91015625E-6,54,53,41,145592,16764938,9323,16746837,10303,16878,3971,4091,Tag0,unknown
1643178015807,0,45,9.8876953125E-6,54,53,41,145592,16764938,9323,16746837,10303,16878,3971,4091,Tag0,unknown
1643178015808,0,74,1.6259765625E-5,54,53,41,145592,16764938,9323,16746837,10303,16878,3971,4091,Tag0,unknown
1643178015809,0,-294,-6.4599609375E-5,54,53,41,145592,16764938,9323,16746837,10303,16878,3971,4091,Tag0,unknown
1643178015824,0,-283,-6.218261718750001E-5,54,53,41,145592,16764938,9323,16746837,10303,16878,3971,4091,Tag0,unknown
1643178015825,0,5,1.0986328125E-6,54,53,41,145592,16764938,9323,16746837,10303,16878,3971,4091,Tag0,unknown
1643178015826,0,1,2.197265625E-7,54,53,41,145592,16764938,9323,16746837,10303,16878,3971,4091,Tag0,unknown
1643178015840,0,-257,-5.64697265625E-5,54,53,41,145592,16764938,9323,16746837,10303,16878,3971,4091,Tag0,unknown
1643178015841,0,53,1.1645507812500002E-5,54,53,41,145592,16764938,9323,16746837,10303,16878,3971,4091,Tag0,unknown
1643178015857,0,-264,-5.80078125E-5,54,53,41,145592,16764938,9323,16746837,10303,16878,3971,4091,Tag0,unknown
1643178015858,0,-265,-5.82275390625E-5,54,53,41,145592,16764938,9323,16746837,10303,16878,3971,4091,Tag0,unknown
1643178015859,0,-265,-5.82275390625E-5,54,53,41,145592,16764938,9323,16746837,10303,16878,3971,4091,Tag0,unknown
1643178015875,0,-259,-5.69091796875E-5,54,53,41,145592,16764938,9323,16746837,10303,16878,3971,4091,Tag0,unknown
1643178015876,0,-273,-5.998535156250001E-5,54,53,41,145592,16764938,9323,16746837,10303,16878,3971,4091,Tag0,unknown
1643178015877,0,2,4.39453125E-7,54,53,41,145592,16764938,9323,16746837,10303,16878,3971,4091,Tag0,unknown
1643178015894,0,-267,-5.86669921875E-5,54,53,41,145592,16764938,9323,16746837,10303,16878,3971,4091,Tag0,unknown
1643178015895,0,40,8.7890625E-6,54,53,41,145592,16764938,9323,16746837,10303,16878,3971,4091,Tag0,unknown
1643178015896,0,39,8.5693359375E-6,54,53,41,145592,16764938,9323,16746837,10303,16878,3971,4091,Tag0,unknown
1643178015897,0,73,1.6040039062500002E-5,54,53,41,145592,16764938,9323,16746837,10303,16878,3971,4091,Tag0,unknown
1643178015907,0,53,1.1645507812500002E-5,54,53,41,145592,16764938,9323,16746837,10303,16878,3971,4091,Tag0,unknown
1643178015908,0,29,6.3720703125E-6,54,53,41,145592,16764938,9323,16746837,10303,16878,3971,4091,Tag0,unknown
1643178015924,0,21,4.614257812500001E-6,54,53,41,145592,16764938,9323,16746837,10303,16878,3971,4091,Tag0,unknown
1643178015925,0,23,5.0537109375E-6,54,53,41,145592,16764938,9323,16746837,10303,16878,3971,4091,Tag0,unknown
1643178015940,0,-258,-5.6689453125000004E-5,54,53,41,145592,16764938,9323,16746837,10303,16878,3971,4091,Tag0,unknown
1643178015941,0,76,1.669921875E-5,54,53,41,145592,16764938,9323,16746837,10303,16878,3971,4091,Tag0,unknown
1643178015958,0,42,9.228515625000002E-6,54,53,41,145592,16764938,9323,16746837,10303,16878,3971,4091,Tag0,unknown
1643178015959,0,48,1.0546875E-5,54,53,41,145592,16764938,9323,16746837,10303,16878,3971,4091,Tag0,unknown
1643178015960,0,73,1.6040039062500002E-5,54,53,41,145592,16764938,9323,16746837,10303,16878,3971,4091,Tag0,unknown
1643178015961,0,83,1.82373046875E-5,54,53,41,145592,16764938,9323,16746837,10303,16878,3971,4091,Tag0,unknown
1643178015976,0,-127,-2.79052734375E-5,54,53,41,145592,16764938,9323,16746837,10303,16878,3971,4091,Tag0,unknown
1643178015977,0,-64,-1.40625E-5,54,53,41,145592,16764938,9323,16746837,10303,16878,3971,4091,Tag0,unknown
1643178015978,0,-60,-1.318359375E-5,54,53,41,145592,16764938,9323,16746837,10303,16878,3971,4091,Tag0,unknown
1643178015979,0,98,2.1533203125E-5,54,53,41,145592,16764938,9323,16746837,10303,16878,3971,4091,Tag0,unknown
1643178015980,0,291,6.39404296875E-5,54,53,41,145592,16764938,9323,16746837,10303,16878,3971,4091,Tag0,unknown
1643178015993,0,341,7.492675781250002E-5,54,53,41,145592,16764938,9323,16746837,10303,16878,3971,4091,Tag0,unknown
1643178015994,0,356,7.822265625E-5,54,53,41,145592,16764938,9323,16746837,10303,16878,3971,4091,Tag0,unknown
1643178015995,0,134,2.9443359375000003E-5,54,53,41,145592,16764938,9323,16746837,10303,16878,3971,4091,Tag0,unknown
1643178015996,0,181,3.9770507812500004E-5,54,53,41,145592,16764938,9323,16746837,10303,16878,3971,4091,Tag0,unknown
1643178016006,0,173,3.80126953125E-5,54,53,41,145592,16764938,9323,16746837,10303,16878,3971,4091,Tag0,unknown
1643178016007,0,370,8.1298828125E-5,54,53,41,145592,16764938,9323,16746837,10303,16878,3971,4091,Tag0,unknown
1643178016024,0,315,6.92138671875E-5,54,53,41,145592,16764938,9323,16746837,10303,16878,3971,4091,Tag0,unknown
1643178016025,0,-19,-4.1748046875E-6,54,53,41,145592,16764938,9323,16746837,10303,16878,3971,4091,Tag0,unknown
1643178016042,0,73,1.6040039062500002E-5,54,53,41,145592,16764938,9323,16746837,10303,16878,3971,4091,Tag0,unknown
1643178016043,0,50,1.0986328125E-5,54,53,41,145592,16764938,9323,16746837,10303,16878,3971,4091,Tag0,unknown
1643178016044,0,-349,-7.668457031250001E-5,54,53,41,145592,16764938,9323,16746837,10303,16878,3971,4091,Tag0,unknown
1643178016058,0,-356,-7.822265625E-5,54,53,41,145592,16764938,9323,16746837,10303,16878,3971,4091,Tag0,unknown
1643178016059,0,-129,-2.8344726562500002E-5,54,53,41,145592,16764938,9323,16746837,10303,16878,3971,4091,Tag0,unknown
1643178016075,0,-217,-4.76806640625E-5,54,53,41,145592,16764938,9323,16746837,10303,16878,3971,4091,Tag0,unknown
1643178016076,0,-238,-5.229492187500001E-5,54,53,41,145592,16764938,9323,16746837,10303,16878,3971,4091,Tag0,unknown
1643178016077,0,-524,-1.1513671875E-4,54,53,41,145592,16764938,9323,16746837,10303,16878,3971,4091,Tag0,unknown
1643178016078,0,-546,-1.1997070312500001E-4,54,53,41,145592,16764938,9323,16746837,10303,16878,3971,4091,Tag0,unknown
1643178016093,0,-517,-1.135986328125E-4,54,53,41,145592,16764938,9323,16746837,10303,16878,3971,4091,Tag0,unknown
1643178016094,0,-520,-1.142578125E-4,54,53,41,145592,16764938,9323,16746837,10303,16878,3971,4091,Tag0,unknown
1643178016108,0,-181,-3.9770507812500004E-5,54,53,41,145592,16764938,9323,16746837,10303,16878,3971,4091,Tag0,unknown
1643178016109,0,-170,-3.7353515625E-5,54,53,41,145592,16764938,9323,16746837,10303,16878,3971,4091,Tag0,unknown
1643178016125,0,-181,-3.9770507812500004E-5,54,53,41,145592,16764938,9323,16746837,10303,16878,3971,4091,Tag0,unknown
1643178016126,0,-345,-7.58056640625E-5,54,53,41,145592,16764938,9323,16746837,10303,16878,3971,4091,Tag0,unknown
1643178016144,0,-372,-8.173828125E-5,54,53,41,145592,16764938,9323,16746837,10303,16878,3971,4091,Tag0,unknown
1643178016145,0,-339,-7.448730468750001E-5,54,53,41,145592,16764938,9323,16746837,10303,16878,3971,4091,Tag0,unknown
1643178016158,0,0,0.0,54,53,41,145592,16764938,9323,16746837,10303,16878,3971,4091,Tag0,unknown
1643178016176,0,26,5.712890625E-6,54,53,41,145592,16764938,9323,16746837,10303,16878,3971,4091,Tag0,unknown
1643178016177,0,-308,-6.767578125E-5,54,53,41,145592,16764938,9323,16746837,10303,16878,3971,4091,Tag0,unknown
1643178016178,0,-330,-7.2509765625E-5,54,53,41,145592,16764938,9323,16746837,10303,16878,3971,4091,Tag0,unknown
1643178016191,0,-369,-8.10791015625E-5,54,53,41,145592,16764938,9323,16746837,10303,16878,3971,4091,Tag0,unknown
1643178016192,0,-334,-7.338867187500001E-5,54,53,41,145592,16764938,9323,16746837,10303,16878,3971,4091,Tag0,unknown
1643178016194,0,-331,-7.272949218750001E-5,54,53,41,145592,16764938,9323,16746837,10303,16878,3971,4091,Tag0,unknown
1643178016195,0,-353,-7.75634765625E-5,54,53,41,145592,16764938,9323,16746837,10303,16878,3971,4091,Tag0,unknown
1643178016208,0,-265,-5.82275390625E-5,54,53,41,145592,16764938,9323,16746837,10303,16878,3971,4091,Tag0,unknown
1643178016209,0,54,1.1865234375000001E-5,54,53,41,145592,16764938,9323,16746837,10303,16878,3971,4091,Tag0,unknown
1643178016225,0,39,8.5693359375E-6,54,53,41,145592,16764938,9323,16746837,10303,16878,3971,4091,Tag0,unknown
1643178016226,0,22,4.833984375E-6,54,53,41,145592,16764938,9323,16746837,10303,16878,3971,4091,Tag0,unknown
1643178016227,0,39,8.5693359375E-6,54,53,41,145592,16764938,9323,16746837,10303,16878,3971,4091,Tag0,unknown
1643178016243,0,20,4.39453125E-6,54,53,41,145592,16764938,9323,16746837,10303,16878,3971,4091,Tag0,unknown
1643178016244,0,17,3.7353515625000003E-6,54,53,41,145592,16764938,9323,16746837,10303,16878,3971,4091,Tag0,unknown
1643178016245,0,3,6.591796875E-7,54,53,41,145592,16764938,9323,16746837,10303,16878,3971,4091,Tag0,unknown
1643178016258,0,25,5.4931640625E-6,54,53,41,145592,16764938,9323,16746837,10303,16878,3971,4091,Tag0,unknown
1643178016259,0,32,7.03125E-6,54,53,41,145592,16764938,9323,16746837,10303,16878,3971,4091,Tag0,unknown
1643178016260,0,27,5.9326171875000005E-6,54,53,41,145592,16764938,9323,16746837,10303,16878,3971,4091,Tag0,unknown
1643178016274,0,23,5.0537109375E-6,54,53,41,145592,16764938,9323,16746837,10303,16878,3971,4091,Tag0,unknown
1643178016275,0,3,6.591796875E-7,54,53,41,145592,16764938,9323,16746837,10303,16878,3971,4091,Tag0,unknown
1643178016276,0,26,5.712890625E-6,54,53,41,145592,16764938,9323,16746837,10303,16878,3971,4091,Tag0,unknown
1643178016295,0,-258,-5.6689453125000004E-5,54,53,41,145592,16764938,9323,16746837,10303,16878,3971,4091,Tag0,unknown
1643178016296,0,-262,-5.7568359375E-5,54,53,41,145592,16764938,9323,16746837,10303,16878,3971,4091,Tag0,unknown
1643178016297,0,11,2.4169921875E-6,54,53,41,145592,16764938,9323,16746837,10303,16878,3971,4091,Tag0,unknown
1643178016298,0,60,1.318359375E-5,54,53,41,145592,16764938,9323,16746837,10303,16878,3971,4091,Tag0,unknown
1643178016307,0,23,5.0537109375E-6,54,53,41,145592,16764938,9323,16746837,10303,16878,3971,4091,Tag0,unknown
1643178016308,0,24,5.2734375E-6,54,53,41,145592,16764938,9323,16746837,10303,16878,3971,4091,Tag0,unknown
1643178016324,0,57,1.2524414062500001E-5,54,53,41,145592,16764938,9323,16746837,10303,16878,3971,4091,Tag0,unknown
1643178016325,0,85,1.86767578125E-5,54,53,41,145592,16764938,9323,16746837,10303,16878,3971,4091,Tag0,unknown
1643178016326,0,-112,-2.4609375E-5,54,53,41,145592,16764938,9323,16746837,10303,16878,3971,4091,Tag0,unknown
1643178016345,0,93,2.04345703125E-5,54,53,41,145592,16764938,9323,16746837,10303,16878,3971,4091,Tag0,unknown
1643178016346,0,113,2.48291015625E-5,54,53,41,145592,16764938,9323,16746837,10303,16878,3971,4091,Tag0,unknown
1643178016347,0,100,2.197265625E-5,54,53,41,145592,16764938,9323,16746837,10303,16878,3971,4091,Tag0,unknown
1643178016348,0,106,2.3291015625000003E-5,54,53,41,145592,16764938,9323,16746837,10303,16878,3971,4091,Tag0,unknown
1643178016359,0,93,2.04345703125E-5,54,53,41,145592,16764938,9323,16746837,10303,16878,3971,4091,Tag0,unknown
1643178016360,0,100,2.197265625E-5,54,53,41,145592,16764938,9323,16746837,10303,16878,3971,4091,Tag0,unknown
1643178016374,0,70,1.5380859375E-5,54,53,41,145592,16764938,9323,16746837,10303,16878,3971,4091,Tag0,unknown
1643178016375,0,-121,-2.6586914062500003E-5,54,53,41,145592,16764938,9323,16746837,10303,16878,3971,4091,Tag0,unknown
1643178016392,0,57,1.2524414062500001E-5,54,53,41,145592,16764938,9323,16746837,10303,16878,3971,4091,Tag0,unknown
1643178016393,0,9,1.9775390625E-6,54,53,41,145592,16764938,9323,16746837,10303,16878,3971,4091,Tag0,unknown
1643178016394,0,21,4.614257812500001E-6,54,53,41,145592,16764938,9323,16746837,10303,16878,3971,4091,Tag0,unknown
1643178016409,0,-261,-5.73486328125E-5,54,53,41,145592,16764938,9323,16746837,10303,16878,3971,4091,Tag0,unknown
1643178016410,0,4,8.7890625E-7,54,53,41,145592,16764938,9323,16746837,10303,16878,3971,4091,Tag0,unknown
1643178016411,0,34,7.4707031250000005E-6,54,53,41,145592,16764938,9323,16746837,10303,16878,3971,4091,Tag0,unknown
1643178016412,0,83,1.82373046875E-5,54,53,41,145592,16764938,9323,16746837,10303,16878,3971,4091,Tag0,unknown
1643178016424,0,22,4.833984375E-6,54,53,41,145592,16764938,9323,16746837,10303,16878,3971,4091,Tag0,unknown
1643178016425,0,27,5.9326171875000005E-6,54,53,41,145592,16764938,9323,16746837,10303,16878,3971,4091,Tag0,unknown
1643178016444,0,113,2.48291015625E-5,54,53,41,145592,16764938,9323,16746837,10303,16878,3971,4091,Tag0,unknown
1643178016445,0,65,1.42822265625E-5,54,53,41,145592,16764938,9323,16746837,10303,16878,3971,4091,Tag0,unknown
1643178016458,0,86,1.8896484375000003E-5,54,53,41,145592,16764938,9323,16746837,10303,16878,3971,4091,Tag0,unknown
1643178016459,0,42,9.228515625000002E-6,54,53,41,145592,16764938,9323,16746837,10303,16878,3971,4091,Tag0,unknown
1643178016476,0,26,5.712890625E-6,54,53,41,145592,16764938,9323,16746837,10303,16878,3971,4091,Tag0,unknown
1643178016477,0,11,2.4169921875E-6,54,53,41,145592,16764938,9323,16746837,10303,16878,3971,4091,Tag0,unknown
1643178016498,0,22,4.833984375E-6,54,53,41,145592,16764938,9323,16746837,10303,16878,3971,4091,Tag0,unknown
1643178016511,0,54,1.1865234375000001E-5,54,53,41,145592,16764938,9323,16746837,10303,16878,3971,4091,Tag0,unknown
1643178016512,0,72,1.58203125E-5,54,53,41,145592,16764938,9323,16746837,10303,16878,3971,4091,Tag0,unknown
1643178016513,0,59,1.29638671875E-5,54,53,41,145592,16764938,9323,16746837,10303,16878,3971,4091,Tag0,unknown
1643178016514,0,-282,-6.1962890625E-5,54,53,41,145592,16764938,9323,16746837,10303,16878,3971,4091,Tag0,unknown
1643178016515,0,-259,-5.69091796875E-5,54,53,41,145592,16764938,9323,16746837,10303,16878,3971,4091,Tag0,unknown
1643178016516,0,-276,-6.064453125E-5,54,53,41,145592,16764938,9323,16746837,10303,16878,3971,4091,Tag0,unknown
1643178016517,0,-305,-6.70166015625E-5,54,53,41,145592,16764938,9323,16746837,10303,16878,3971,4091,Tag0,unknown
1643178016518,0,-372,-8.173828125E-5,54,53,41,145592,16764938,9323,16746837,10303,16878,3971,4091,Tag0,unknown
1643178016526,0,-293,-6.43798828125E-5,54,53,41,145592,16764938,9323,16746837,10303,16878,3971,4091,Tag0,unknown
1643178016527,0,-282,-6.1962890625E-5,54,53,41,145592,16764938,9323,16746837,10303,16878,3971,4091,Tag0,unknown
1643178016542,0,40,8.7890625E-6,54,53,41,145592,16764938,9323,16746837,10303,16878,3971,4091,Tag0,unknown
1643178016543,0,-264,-5.80078125E-5,54,53,41,145592,16764938,9323,16746837,10303,16878,3971,4091,Tag0,unknown
1643178016560,0,101,2.2192382812500002E-5,54,53,41,145592,16764938,9323,16746837,10303,16878,3971,4091,Tag0,unknown
1643178016561,0,-124,-2.724609375E-5,54,53,41,145592,16764938,9323,16746837,10303,16878,3971,4091,Tag0,unknown
1643178016562,0,-123,-2.70263671875E-5,54,53,41,145592,16764938,9323,16746837,10303,16878,3971,4091,Tag0,unknown
1643178016563,0,81,1.77978515625E-5,54,53,41,145592,16764938,9323,16746837,10303,16878,3971,4091,Tag0,unknown
1643178016577,0,45,9.8876953125E-6,54,53,41,145592,16764938,9323,16746837,10303,16878,3971,4091,Tag0,unknown
1643178016578,0,24,5.2734375E-6,54,53,41,145592,16764938,9323,16746837,10303,16878,3971,4091,Tag0,unknown
1643178016579,0,50,1.0986328125E-5,54,53,41,145592,16764938,9323,16746837,10303,16878,3971,4091,Tag0,unknown
1643178016593,0,40,8.7890625E-6,54,53,41,145592,16764938,9323,16746837,10303,16878,3971,4091,Tag0,unknown
1643178016594,0,-259,-5.69091796875E-5,57,60,41,807302,73648,16746812,42124,25106,25918,7404,4006,Tag0,unknown
1643178016595,0,-286,-6.2841796875E-5,57,60,41,807302,73648,16746812,42124,25106,25918,7404,4006,Tag0,unknown
1643178016613,0,-277,-6.0864257812500005E-5,57,60,41,807302,73648,16746812,42124,25106,25918,7404,4006,Tag0,unknown
1643178016614,0,8,1.7578125E-6,57,60,41,807302,73648,16746812,42124,25106,25918,7404,4006,Tag0,unknown
1643178016615,0,-90,-1.9775390625E-5,57,60,41,807302,73648,16746812,42124,25106,25918,7404,4006,Tag0,unknown
1643178016616,0,105,2.30712890625E-5,57,60,41,807302,73648,16746812,42124,25106,25918,7404,4006,Tag0,unknown
1643178016626,0,65,1.42822265625E-5,57,60,41,807302,73648,16746812,42124,25106,25918,7404,4006,Tag0,unknown
1643178016627,0,76,1.669921875E-5,57,60,41,807302,73648,16746812,42124,25106,25918,7404,4006,Tag0,unknown
1643178016628,0,90,1.9775390625E-5,57,60,41,807302,73648,16746812,42124,25106,25918,7404,4006,Tag0,unknown
1643178016643,0,101,2.2192382812500002E-5,57,60,41,807302,73648,16746812,42124,25106,25918,7404,4006,Tag0,unknown
1643178016644,0,113,2.48291015625E-5,57,60,41,807302,73648,16746812,42124,25106,25918,7404,4006,Tag0,unknown
1643178016645,0,39,8.5693359375E-6,57,60,41,807302,73648,16746812,42124,25106,25918,7404,4006,Tag0,unknown
1643178016659,0,64,1.40625E-5,57,60,41,807302,73648,16746812,42124,25106,25918,7404,4006,Tag0,unknown
1643178016660,0,55,1.20849609375E-5,57,60,41,807302,73648,16746812,42124,25106,25918,7404,4006,Tag0,unknown
1643178016661,0,52,1.142578125E-5,57,60,41,807302,73648,16746812,42124,25106,25918,7404,4006,Tag0,unknown
1643178016676,0,91,1.99951171875E-5,57,60,41,807302,73648,16746812,42124,25106,25918,7404,4006,Tag0,unknown
1643178016677,0,22,4.833984375E-6,57,60,41,807302,73648,16746812,42124,25106,25918,7404,4006,Tag0,unknown
1643178016678,0,43,9.448242187500001E-6,57,60,41,807302,73648,16746812,42124,25106,25918,7404,4006,Tag0,unknown
1643178016694,0,55,1.20849609375E-5,57,60,41,807302,73648,16746812,42124,25106,25918,7404,4006,Tag0,unknown
1643178016695,0,42,9.228515625000002E-6,57,60,41,807302,73648,16746812,42124,25106,25918,7404,4006,Tag0,unknown
1643178016696,0,51,1.1206054687499999E-5,57,60,41,807302,73648,16746812,42124,25106,25918,7404,4006,Tag0,unknown
1643178016709,0,32,7.03125E-6,57,60,41,807302,73648,16746812,42124,25106,25918,7404,4006,Tag0,unknown
1643178016710,0,-266,-5.8447265625E-5,57,60,41,807302,73648,16746812,42124,25106,25918,7404,4006,Tag0,unknown
1643178016711,0,19,4.1748046875E-6,57,60,41,807302,73648,16746812,42124,25106,25918,7404,4006,Tag0,unknown
1643178016726,0,16,3.515625E-6,57,60,41,807302,73648,16746812,42124,25106,25918,7404,4006,Tag0,unknown
1643178016727,0,27,5.9326171875000005E-6,57,60,41,807302,73648,16746812,42124,25106,25918,7404,4006,Tag0,unknown
1643178016728,0,35,7.6904296875E-6,57,60,41,807302,73648,16746812,42124,25106,25918,7404,4006,Tag0,unknown
1643178016729,0,-269,-5.9106445312499996E-5,57,60,41,807302,73648,16746812,42124,25106,25918,7404,4006,Tag0,unknown
1643178016744,0,60,1.318359375E-5,57,60,41,807302,73648,16746812,42124,25106,25918,7404,4006,Tag0,unknown
1643178016745,0,40,8.7890625E-6,57,60,41,807302,73648,16746812,42124,25106,25918,7404,4006,Tag0,unknown
1643178016746,0,43,9.448242187500001E-6,57,60,41,807302,73648,16746812,42124,25106,25918,7404,4006,Tag0,unknown
1643178016760,0,-265,-5.82275390625E-5,57,60,41,807302,73648,16746812,42124,25106,25918,7404,4006,Tag0,unknown
1643178016761,0,48,1.0546875E-5,57,60,41,807302,73648,16746812,42124,25106,25918,7404,4006,Tag0,unknown
1643178016762,0,35,7.6904296875E-6,57,60,41,807302,73648,16746812,42124,25106,25918,7404,4006,Tag0,unknown
1643178016782,0,64,1.40625E-5,57,60,41,807302,73648,16746812,42124,25106,25918,7404,4006,Tag0,unknown
1643178016793,0,92,2.021484375E-5,57,60,41,807302,73648,16746812,42124,25106,25918,7404,4006,Tag0,unknown
1643178016794,0,26,5.712890625E-6,57,60,41,807302,73648,16746812,42124,25106,25918,7404,4006,Tag0,unknown
1643178016795,0,-316,-6.943359375000001E-5,57,60,41,807302,73648,16746812,42124,25106,25918,7404,4006,Tag0,unknown
1643178016809,0,-376,-8.261718750000001E-5,57,60,41,807302,73648,16746812,42124,25106,25918,7404,4006,Tag0,unknown
1643178016810,0,-357,-7.844238281250001E-5,57,60,41,807302,73648,16746812,42124,25106,25918,7404,4006,Tag0,unknown
1643178016811,0,-296,-6.50390625E-5,57,60,41,807302,73648,16746812,42124,25106,25918,7404,4006,Tag0,unknown
1643178016826,0,-311,-6.833496093750001E-5,57,60,41,807302,73648,16746812,42124,25106,25918,7404,4006,Tag0,unknown
1643178016827,0,-274,-6.0205078124999997E-5,57,60,41,807302,73648,16746812,42124,25106,25918,7404,4006,Tag0,unknown
1643178016845,0,72,1.58203125E-5,57,60,41,807302,73648,16746812,42124,25106,25918,7404,4006,Tag0,unknown
1643178016846,0,84,1.8457031250000004E-5,57,60,41,807302,73648,16746812,42124,25106,25918,7404,4006,Tag0,unknown
1643178016847,0,-274,-6.0205078124999997E-5,57,60,41,807302,73648,16746812,42124,25106,25918,7404,4006,Tag0,unknown
1643178016848,0,24,5.2734375E-6,57,60,41,807302,73648,16746812,42124,25106,25918,7404,4006,Tag0,unknown
1643178016860,0,41,9.008789062499999E-6,57,60,41,807302,73648,16746812,42124,25106,25918,7404,4006,Tag0,unknown
1643178016861,0,52,1.142578125E-5,57,60,41,807302,73648,16746812,42124,25106,25918,7404,4006,Tag0,unknown
1643178016862,0,39,8.5693359375E-6,57,60,41,807302,73648,16746812,42124,25106,25918,7404,4006,Tag0,unknown
1643178016877,0,71,1.56005859375E-5,57,60,41,807302,73648,16746812,42124,25106,25918,7404,4006,Tag0,unknown
1643178016878,0,41,9.008789062499999E-6,57,60,41,807302,73648,16746812,42124,25106,25918,7404,4006,Tag0,unknown
1643178016879,0,45,9.8876953125E-6,57,60,41,807302,73648,16746812,42124,25106,25918,7404,4006,Tag0,unknown
1643178016895,0,72,1.58203125E-5,57,60,41,807302,73648,16746812,42124,25106,25918,7404,4006,Tag0,unknown
1643178016896,0,75,1.64794921875E-5,57,60,41,807302,73648,16746812,42124,25106,25918,7404,4006,Tag0,unknown
1643178016897,0,113,2.48291015625E-5,57,60,41,807302,73648,16746812,42124,25106,25918,7404,4006,Tag0,unknown
1643178016898,0,2,4.39453125E-7,57,60,41,807302,73648,16746812,42124,25106,25918,7404,4006,Tag0,unknown
1643178016914,0,34,7.4707031250000005E-6,57,60,41,807302,73648,16746812,42124,25106,25918,7404,4006,Tag0,unknown
1643178016915,0,-258,-5.6689453125000004E-5,57,60,41,807302,73648,16746812,42124,25106,25918,7404,4006,Tag0,unknown
1643178016916,0,33,7.2509765625E-6,57,60,41,807302,73648,16746812,42124,25106,25918,7404,4006,Tag0,unknown
1643178016926,0,33,7.2509765625E-6,57,60,41,807302,73648,16746812,42124,25106,25918,7404,4006,Tag0,unknown
1643178016927,0,86,1.8896484375000003E-5,57,60,41,807302,73648,16746812,42124,25106,25918,7404,4006,Tag0,unknown
1643178016942,0,76,1.669921875E-5,57,60,41,807302,73648,16746812,42124,25106,25918,7404,4006,Tag0,unknown
1643178016943,0,48,1.0546875E-5,57,60,41,807302,73648,16746812,42124,25106,25918,7404,4006,Tag0,unknown
1643178016944,0,104,2.28515625E-5,57,60,41,807302,73648,16746812,42124,25106,25918,7404,4006,Tag0,unknown
1643178016960,0,83,1.82373046875E-5,57,60,41,807302,73648,16746812,42124,25106,25918,7404,4006,Tag0,unknown
1643178016961,0,43,9.448242187500001E-6,57,60,41,807302,73648,16746812,42124,25106,25918,7404,4006,Tag0,unknown
1643178016962,0,64,1.40625E-5,57,60,41,807302,73648,16746812,42124,25106,25918,7404,4006,Tag0,unknown
1643178016976,0,66,1.4501953125E-5,57,60,41,807302,73648,16746812,42124,25106,25918,7404,4006,Tag0,unknown
1643178016977,0,49,1.07666015625E-5,57,60,41,807302,73648,16746812,42124,25106,25918,7404,4006,Tag0,unknown
1643178016978,0,20,4.39453125E-6,57,60,41,807302,73648,16746812,42124,25106,25918,7404,4006,Tag0,unknown
1643178016994,0,28,6.15234375E-6,57,60,41,807302,73648,16746812,42124,25106,25918,7404,4006,Tag0,unknown
1643178016995,0,53,1.1645507812500002E-5,57,60,41,807302,73648,16746812,42124,25106,25918,7404,4006,Tag0,unknown
1643178017010,0,65,1.42822265625E-5,57,60,41,807302,73648,16746812,42124,25106,25918,7404,4006,Tag0,unknown
1643178017011,0,76,1.669921875E-5,57,60,41,807302,73648,16746812,42124,25106,25918,7404,4006,Tag0,unknown
1643178017027,0,35,7.6904296875E-6,57,60,41,807302,73648,16746812,42124,25106,25918,7404,4006,Tag0,unknown
1643178017028,0,9,1.9775390625E-6,57,60,41,807302,73648,16746812,42124,25106,25918,7404,4006,Tag0,unknown
1643178017045,0,45,9.8876953125E-6,57,60,41,807302,73648,16746812,42124,25106,25918,7404,4006,Tag0,unknown
1643178017046,0,105,2.30712890625E-5,57,60,41,807302,73648,16746812,42124,25106,25918,7404,4006,Tag0,unknown
1643178017047,0,20,4.39453125E-6,57,60,41,807302,73648,16746812,42124,25106,25918,7404,4006,Tag0,unknown
1643178017062,0,42,9.228515625000002E-6,57,60,41,807302,73648,16746812,42124,25106,25918,7404,4006,Tag0,unknown
1643178017063,0,10,2.197265625E-6,57,60,41,807302,73648,16746812,42124,25106,25918,7404,4006,Tag0,unknown
1643178017076,0,7,1.5380859375E-6,57,60,41,807302,73648,16746812,42124,25106,25918,7404,4006,Tag0,unknown
1643178017077,0,1,2.197265625E-7,57,60,41,807302,73648,16746812,42124,25106,25918,7404,4006,Tag0,unknown
1643178017095,0,55,1.20849609375E-5,57,60,41,807302,73648,16746812,42124,25106,25918,7404,4006,Tag0,unknown
1643178017096,0,55,1.20849609375E-5,57,60,41,807302,73648,16746812,42124,25106,25918,7404,4006,Tag0,unknown
1643178017097,0,45,9.8876953125E-6,57,60,41,807302,73648,16746812,42124,25106,25918,7404,4006,Tag0,unknown
1643178017098,0,2,4.39453125E-7,57,60,41,807302,73648,16746812,42124,25106,25918,7404,4006,Tag0,unknown
1643178017109,0,-266,-5.8447265625E-5,57,60,41,807302,73648,16746812,42124,25106,25918,7404,4006,Tag0,unknown
1643178017110,0,5,1.0986328125E-6,57,60,41,807302,73648,16746812,42124,25106,25918,7404,4006,Tag0,unknown
1643178017111,0,6,1.318359375E-6,57,60,41,807302,73648,16746812,42124,25106,25918,7404,4006,Tag0,unknown
1643178017127,0,18,3.955078125E-6,57,60,41,807302,73648,16746812,42124,25106,25918,7404,4006,Tag0,unknown
1643178017128,0,73,1.6040039062500002E-5,57,60,41,807302,73648,16746812,42124,25106,25918,7404,4006,Tag0,unknown
1643178017148,0,97,2.13134765625E-5,57,60,41,807302,73648,16746812,42124,25106,25918,7404,4006,Tag0,unknown
1643178017149,0,90,1.9775390625E-5,57,60,41,807302,73648,16746812,42124,25106,25918,7404,4006,Tag0,unknown
1643178017150,0,55,1.20849609375E-5,57,60,41,807302,73648,16746812,42124,25106,25918,7404,4006,Tag0,unknown
1643178017160,0,41,9.008789062499999E-6,57,60,41,807302,73648,16746812,42124,25106,25918,7404,4006,Tag0,unknown
1643178017161,0,36,7.91015625E-6,57,60,41,807302,73648,16746812,42124,25106,25918,7404,4006,Tag0,unknown
1643178017177,0,22,4.833984375E-6,57,60,41,807302,73648,16746812,42124,25106,25918,7404,4006,Tag0,unknown
1643178017178,0,24,5.2734375E-6,57,60,41,807302,73648,16746812,42124,25106,25918,7404,4006,Tag0,unknown
1643178017194,0,-279,-6.13037109375E-5,57,60,41,807302,73648,16746812,42124,25106,25918,7404,4006,Tag0,unknown
1643178017195,0,25,5.4931640625E-6,57,60,41,807302,73648,16746812,42124,25106,25918,7404,4006,Tag0,unknown
1643178017210,0,5,1.0986328125E-6,57,60,41,807302,73648,16746812,42124,25106,25918,7404,4006,Tag0,unknown
1643178017211,0,51,1.1206054687499999E-5,57,60,41,807302,73648,16746812,42124,25106,25918,7404,4006,Tag0,unknown
1643178017226,0,54,1.1865234375000001E-5,57,60,41,807302,73648,16746812,42124,25106,25918,7404,4006,Tag0,unknown
1643178017227,0,53,1.1645507812500002E-5,57,60,41,807302,73648,16746812,42124,25106,25918,7404,4006,Tag0,unknown
1643178017245,0,87,1.91162109375E-5,57,60,41,807302,73648,16746812,42124,25106,25918,7404,4006,Tag0,unknown
1643178017246,0,55,1.20849609375E-5,57,60,41,807302,73648,16746812,42124,25106,25918,7404,4006,Tag0,unknown
1643178017247,0,65,1.42822265625E-5,57,60,41,807302,73648,16746812,42124,25106,25918,7404,4006,Tag0,unknown
1643178017263,0,41,9.008789062499999E-6,57,60,41,807302,73648,16746812,42124,25106,25918,7404,4006,Tag0,unknown
1643178017264,0,72,1.58203125E-5,57,60,41,807302,73648,16746812,42124,25106,25918,7404,4006,Tag0,unknown
1643178017277,0,76,1.669921875E-5,57,60,41,807302,73648,16746812,42124,25106,25918,7404,4006,Tag0,unknown
1643178017278,0,4,8.7890625E-7,57,60,41,807302,73648,16746812,42124,25106,25918,7404,4006,Tag0,unknown
1643178017293,0,4,8.7890625E-7,57,60,41,807302,73648,16746812,42124,25106,25918,7404,4006,Tag0,unknown
1643178017294,0,2,4.39453125E-7,57,60,41,807302,73648,16746812,42124,25106,25918,7404,4006,Tag0,unknown
1643178017310,0,87,1.91162109375E-5,57,60,41,807302,73648,16746812,42124,25106,25918,7404,4006,Tag0,unknown
1643178017311,0,82,1.8017578124999998E-5,57,60,41,807302,73648,16746812,42124,25106,25918,7404,4006,Tag0,unknown
1643178017312,0,44,9.66796875E-6,57,60,41,807302,73648,16746812,42124,25106,25918,7404,4006,Tag0,unknown
1643178017328,0,28,6.15234375E-6,57,60,41,807302,73648,16746812,42124,25106,25918,7404,4006,Tag0,unknown
1643178017329,0,-311,-6.833496093750001E-5,57,60,41,807302,73648,16746812,42124,25106,25918,7404,4006,Tag0,unknown
1643178017330,0,5,1.0986328125E-6,57,60,41,807302,73648,16746812,42124,25106,25918,7404,4006,Tag0,unknown
1643178017346,0,43,9.448242187500001E-6,57,60,41,807302,73648,16746812,42124,25106,25918,7404,4006,Tag0,unknown
1643178017347,0,-259,-5.69091796875E-5,57,60,41,807302,73648,16746812,42124,25106,25918,7404,4006,Tag0,unknown
1643178017362,0,1,2.197265625E-7,57,60,41,807302,73648,16746812,42124,25106,25918,7404,4006,Tag0,unknown
1643178017363,0,-260,-5.712890625E-5,57,60,41,807302,73648,16746812,42124,25106,25918,7404,4006,Tag0,unknown
1643178017364,0,36,7.91015625E-6,57,60,41,807302,73648,16746812,42124,25106,25918,7404,4006,Tag0,unknown
1643178017378,0,-259,-5.69091796875E-5,57,60,41,807302,73648,16746812,42124,25106,25918,7404,4006,Tag0,unknown
1643178017379,0,-266,-5.8447265625E-5,57,60,41,807302,73648,16746812,42124,25106,25918,7404,4006,Tag0,unknown
1643178017380,0,16,3.515625E-6,57,60,41,807302,73648,16746812,42124,25106,25918,7404,4006,Tag0,unknown
1643178017396,0,-286,-6.2841796875E-5,57,60,41,807302,73648,16746812,42124,25106,25918,7404,4006,Tag0,unknown
1643178017397,0,-285,-6.26220703125E-5,57,60,41,807302,73648,16746812,42124,25106,25918,7404,4006,Tag0,unknown
1643178017398,0,17,3.7353515625000003E-6,57,60,41,807302,73648,16746812,42124,25106,25918,7404,4006,Tag0,unknown
1643178017411,0,65,1.42822265625E-5,57,60,41,807302,73648,16746812,42124,25106,25918,7404,4006,Tag0,unknown
1643178017412,0,83,1.82373046875E-5,57,60,41,807302,73648,16746812,42124,25106,25918,7404,4006,Tag0,unknown
1643178017413,0,10,2.197265625E-6,57,60,41,807302,73648,16746812,42124,25106,25918,7404,4006,Tag0,unknown
1643178017428,0,19,4.1748046875E-6,57,60,41,807302,73648,16746812,42124,25106,25918,7404,4006,Tag0,unknown
1643178017429,0,28,6.15234375E-6,57,60,41,807302,73648,16746812,42124,25106,25918,7404,4006,Tag0,unknown
1643178017446,0,34,7.4707031250000005E-6,57,60,41,807302,73648,16746812,42124,25106,25918,7404,4006,Tag0,unknown
1643178017463,0,39,8.5693359375E-6,57,60,41,807302,73648,16746812,42124,25106,25918,7404,4006,Tag0,unknown
1643178017464,0,-274,-6.0205078124999997E-5,57,60,41,807302,73648,16746812,42124,25106,25918,7404,4006,Tag0,unknown
1643178017465,0,-261,-5.73486328125E-5,57,60,41,807302,73648,16746812,42124,25106,25918,7404,4006,Tag0,unknown
1643178017476,0,-306,-6.723632812500001E-5,57,60,41,807302,73648,16746812,42124,25106,25918,7404,4006,Tag0,unknown
1643178017477,0,-273,-5.998535156250001E-5,57,60,41,807302,73648,16746812,42124,25106,25918,7404,4006,Tag0,unknown
1643178017478,0,1,2.197265625E-7,57,60,41,807302,73648,16746812,42124,25106,25918,7404,4006,Tag0,unknown
1643178017479,0,55,1.20849609375E-5,57,60,41,807302,73648,16746812,42124,25106,25918,7404,4006,Tag0,unknown
1643178017496,0,25,5.4931640625E-6,57,60,41,807302,73648,16746812,42124,25106,25918,7404,4006,Tag0,unknown
1643178017497,0,74,1.6259765625E-5,57,60,41,807302,73648,16746812,42124,25106,25918,7404,4006,Tag0,unknown
1643178017514,0,5,1.0986328125E-6,57,60,41,807302,73648,16746812,42124,25106,25918,7404,4006,Tag0,unknown
1643178017515,0,1,2.197265625E-7,57,60,41,807302,73648,16746812,42124,25106,25918,7404,4006,Tag0,unknown
1643178017516,0,16,3.515625E-6,57,60,41,807302,73648,16746812,42124,25106,25918,7404,4006,Tag0,unknown
1643178017527,0,27,5.9326171875000005E-6,57,60,41,807302,73648,16746812,42124,25106,25918,7404,4006,Tag0,unknown
1643178017528,0,44,9.66796875E-6,57,60,41,807302,73648,16746812,42124,25106,25918,7404,4006,Tag0,unknown
1643178017546,0,38,8.349609375E-6,57,60,41,807302,73648,16746812,42124,25106,25918,7404,4006,Tag0,unknown
1643178017547,0,17,3.7353515625000003E-6,57,60,41,807302,73648,16746812,42124,25106,25918,7404,4006,Tag0,unknown
1643178017561,0,17,3.7353515625000003E-6,57,60,41,807302,73648,16746812,42124,25106,25918,7404,4006,Tag0,unknown
1643178017562,0,32,7.03125E-6,57,60,41,807302,73648,16746812,42124,25106,25918,7404,4006,Tag0,unknown
1643178017578,0,19,4.1748046875E-6,57,60,41,807302,73648,16746812,42124,25106,25918,7404,4006,Tag0,unknown
1643178017579,0,68,1.4941406250000001E-5,57,60,41,807302,73648,16746812,42124,25106,25918,7404,4006,Tag0,unknown
1643178017598,0,41,9.008789062499999E-6,57,60,41,807302,73648,16746812,42124,25106,25918,7404,4006,Tag0,unknown
1643178017599,0,-257,-5.64697265625E-5,70,80,41,16754742,14142,26844,24348,12996,16223,7538,3892,Tag0,unknown
1643178017612,0,60,1.318359375E-5,70,80,41,16754742,14142,26844,24348,12996,16223,7538,3892,Tag0,unknown
1643178017613,0,35,7.6904296875E-6,70,80,41,16754742,14142,26844,24348,12996,16223,7538,3892,Tag0,unknown
1643178017614,0,20,4.39453125E-6,70,80,41,16754742,14142,26844,24348,12996,16223,7538,3892,Tag0,unknown
1643178017628,0,8,1.7578125E-6,70,80,41,16754742,14142,26844,24348,12996,16223,7538,3892,Tag0,unknown
1643178017629,0,32,7.03125E-6,70,80,41,16754742,14142,26844,24348,12996,16223,7538,3892,Tag0,unknown
1643178017630,0,42,9.228515625000002E-6,70,80,41,16754742,14142,26844,24348,12996,16223,7538,3892,Tag0,unknown
1643178017650,0,20,4.39453125E-6,70,80,41,16754742,14142,26844,24348,12996,16223,7538,3892,Tag0,unknown
1643178017662,0,48,1.0546875E-5,70,80,41,16754742,14142,26844,24348,12996,16223,7538,3892,Tag0,unknown
1643178017678,0,12,2.63671875E-6,70,80,41,16754742,14142,26844,24348,12996,16223,7538,3892,Tag0,unknown
1643178017679,0,-278,-6.108398437500001E-5,70,80,41,16754742,14142,26844,24348,12996,16223,7538,3892,Tag0,unknown
1643178017680,0,-313,-6.87744140625E-5,70,80,41,16754742,14142,26844,24348,12996,16223,7538,3892,Tag0,unknown
1643178017681,0,-297,-6.525878906250001E-5,70,80,41,16754742,14142,26844,24348,12996,16223,7538,3892,Tag0,unknown
1643178017695,0,3,6.591796875E-7,70,80,41,16754742,14142,26844,24348,12996,16223,7538,3892,Tag0,unknown
1643178017696,0,11,2.4169921875E-6,70,80,41,16754742,14142,26844,24348,12996,16223,7538,3892,Tag0,unknown
1643178017712,0,10,2.197265625E-6,70,80,41,16754742,14142,26844,24348,12996,16223,7538,3892,Tag0,unknown
1643178017713,0,44,9.66796875E-6,70,80,41,16754742,14142,26844,24348,12996,16223,7538,3892,Tag0,unknown
1643178017714,0,35,7.6904296875E-6,70,80,41,16754742,14142,26844,24348,12996,16223,7538,3892,Tag0,unknown
1643178017727,0,4,8.7890625E-7,70,80,41,16754742,14142,26844,24348,12996,16223,7538,3892,Tag0,unknown
1643178017728,0,24,5.2734375E-6,70,80,41,16754742,14142,26844,24348,12996,16223,7538,3892,Tag0,unknown
1643178017729,0,55,1.20849609375E-5,70,80,41,16754742,14142,26844,24348,12996,16223,7538,3892,Tag0,unknown
1643178017730,0,10,2.197265625E-6,70,80,41,16754742,14142,26844,24348,12996,16223,7538,3892,Tag0,unknown
1643178017744,0,58,1.2744140625E-5,70,80,41,16754742,14142,26844,24348,12996,16223,7538,3892,Tag0,unknown
1643178017745,0,1,2.197265625E-7,70,80,41,16754742,14142,26844,24348,12996,16223,7538,3892,Tag0,unknown
1643178017762,0,49,1.07666015625E-5,70,80,41,16754742,14142,26844,24348,12996,16223,7538,3892,Tag0,unknown
1643178017763,0,38,8.349609375E-6,70,80,41,16754742,14142,26844,24348,12996,16223,7538,3892,Tag0,unknown
1643178017778,0,38,8.349609375E-6,70,80,41,16754742,14142,26844,24348,12996,16223,7538,3892,Tag0,unknown
1643178017779,0,48,1.0546875E-5,70,80,41,16754742,14142,26844,24348,12996,16223,7538,3892,Tag0,unknown
1643178017780,0,68,1.4941406250000001E-5,70,80,41,16754742,14142,26844,24348,12996,16223,7538,3892,Tag0,unknown
1643178017781,0,44,9.66796875E-6,70,80,41,16754742,14142,26844,24348,12996,16223,7538,3892,Tag0,unknown
1643178017795,0,29,6.3720703125E-6,70,80,41,16754742,14142,26844,24348,12996,16223,7538,3892,Tag0,unknown
1643178017796,0,67,1.4721679687500002E-5,70,80,41,16754742,14142,26844,24348,12996,16223,7538,3892,Tag0,unknown
1643178017811,0,84,1.8457031250000004E-5,70,80,41,16754742,14142,26844,24348,12996,16223,7538,3892,Tag0,unknown
1643178017812,0,96,2.109375E-5,70,80,41,16754742,14142,26844,24348,12996,16223,7538,3892,Tag0,unknown
1643178017813,0,49,1.07666015625E-5,70,80,41,16754742,14142,26844,24348,12996,16223,7538,3892,Tag0,unknown
1643178017833,0,64,1.40625E-5,70,80,41,16754742,14142,26844,24348,12996,16223,7538,3892,Tag0,unknown
1643178017834,0,64,1.40625E-5,70,80,41,16754742,14142,26844,24348,12996,16223,7538,3892,Tag0,unknown
1643178017835,0,24,5.2734375E-6,70,80,41,16754742,14142,26844,24348,12996,16223,7538,3892,Tag0,unknown
1643178017836,0,48,1.0546875E-5,70,80,41,16754742,14142,26844,24348,12996,16223,7538,3892,Tag0,unknown
1643178017843,0,81,1.77978515625E-5,70,80,41,16754742,14142,26844,24348,12996,16223,7538,3892,Tag0,unknown
1643178017844,0,48,1.0546875E-5,70,80,41,16754742,14142,26844,24348,12996,16223,7538,3892,Tag0,unknown
1643178017862,0,57,1.2524414062500001E-5,70,80,41,16754742,14142,26844,24348,12996,16223,7538,3892,Tag0,unknown
1643178017863,0,52,1.142578125E-5,70,80,41,16754742,14142,26844,24348,12996,16223,7538,3892,Tag0,unknown
1643178017864,0,38,8.349609375E-6,70,80,41,16754742,14142,26844,24348,12996,16223,7538,3892,Tag0,unknown
1643178017877,0,72,1.58203125E-5,70,80,41,16754742,14142,26844,24348,12996,16223,7538,3892,Tag0,unknown
1643178017878,0,103,2.26318359375E-5,70,80,41,16754742,14142,26844,24348,12996,16223,7538,3892,Tag0,unknown
1643178017895,0,73,1.6040039062500002E-5,70,80,41,16754742,14142,26844,24348,12996,16223,7538,3892,Tag0,unknown
1643178017896,0,43,9.448242187500001E-6,70,80,41,16754742,14142,26844,24348,12996,16223,7538,3892,Tag0,unknown
1643178017897,0,72,1.58203125E-5,70,80,41,16754742,14142,26844,24348,12996,16223,7538,3892,Tag0,unknown
1643178017912,0,65,1.42822265625E-5,70,80,41,16754742,14142,26844,24348,12996,16223,7538,3892,Tag0,unknown
1643178017913,0,60,1.318359375E-5,70,80,41,16754742,14142,26844,24348,12996,16223,7538,3892,Tag0,unknown
1643178017929,0,44,9.66796875E-6,70,80,41,16754742,14142,26844,24348,12996,16223,7538,3892,Tag0,unknown
1643178017930,0,29,6.3720703125E-6,70,80,41,16754742,14142,26844,24348,12996,16223,7538,3892,Tag0,unknown
1643178017945,0,34,7.4707031250000005E-6,70,80,41,16754742,14142,26844,24348,12996,16223,7538,3892,Tag0,unknown
1643178017946,0,39,8.5693359375E-6,70,80,41,16754742,14142,26844,24348,12996,16223,7538,3892,Tag0,unknown
1643178017963,0,33,7.2509765625E-6,70,80,41,16754742,14142,26844,24348,12996,16223,7538,3892,Tag0,unknown
1643178017964,0,28,6.15234375E-6,70,80,41,16754742,14142,26844,24348,12996,16223,7538,3892,Tag0,unknown
1643178017965,0,40,8.7890625E-6,70,80,41,16754742,14142,26844,24348,12996,16223,7538,3892,Tag0,unknown
1643178017966,0,19,4.1748046875E-6,70,80,41,16754742,14142,26844,24348,12996,16223,7538,3892,Tag0,unknown
1643178017979,0,55,1.20849609375E-5,70,80,41,16754742,14142,26844,24348,12996,16223,7538,3892,Tag0,unknown
1643178017980,0,49,1.07666015625E-5,70,80,41,16754742,14142,26844,24348,12996,16223,7538,3892,Tag0,unknown
1643178017995,0,70,1.5380859375E-5,70,80,41,16754742,14142,26844,24348,12996,16223,7538,3892,Tag0,unknown
1643178017996,0,23,5.0537109375E-6,70,80,41,16754742,14142,26844,24348,12996,16223,7538,3892,Tag0,unknown
1643178018012,0,71,1.56005859375E-5,70,80,41,16754742,14142,26844,24348,12996,16223,7538,3892,Tag0,unknown
1643178018013,0,42,9.228515625000002E-6,70,80,41,16754742,14142,26844,24348,12996,16223,7538,3892,Tag0,unknown
1643178018031,0,55,1.20849609375E-5,70,80,41,16754742,14142,26844,24348,12996,16223,7538,3892,Tag0,unknown
1643178018032,0,22,4.833984375E-6,70,80,41,16754742,14142,26844,24348,12996,16223,7538,3892,Tag0,unknown
1643178018049,0,13,2.8564453125E-6,70,80,41,16754742,14142,26844,24348,12996,16223,7538,3892,Tag0,unknown
1643178018050,0,41,9.008789062499999E-6,70,80,41,16754742,14142,26844,24348,12996,16223,7538,3892,Tag0,unknown
1643178018064,0,48,1.0546875E-5,70,80,41,16754742,14142,26844,24348,12996,16223,7538,3892,Tag0,unknown
1643178018077,0,43,9.448242187500001E-6,70,80,41,16754742,14142,26844,24348,12996,16223,7538,3892,Tag0,unknown
1643178018078,0,34,7.4707031250000005E-6,70,80,41,16754742,14142,26844,24348,12996,16223,7538,3892,Tag0,unknown
1643178018079,0,-268,-5.8886718750000006E-5,70,80,41,16754742,14142,26844,24348,12996,16223,7538,3892,Tag0,unknown
1643178018080,0,-316,-6.943359375000001E-5,70,80,41,16754742,14142,26844,24348,12996,16223,7538,3892,Tag0,unknown
1643178018096,0,-323,-7.09716796875E-5,70,80,41,16754742,14142,26844,24348,12996,16223,7538,3892,Tag0,unknown
1643178018097,0,13,2.8564453125E-6,70,80,41,16754742,14142,26844,24348,12996,16223,7538,3892,Tag0,unknown
1643178018113,0,-267,-5.86669921875E-5,70,80,41,16754742,14142,26844,24348,12996,16223,7538,3892,Tag0,unknown
1643178018114,0,-274,-6.0205078124999997E-5,70,80,41,16754742,14142,26844,24348,12996,16223,7538,3892,Tag0,unknown
1643178018115,0,-281,-6.17431640625E-5,70,80,41,16754742,14142,26844,24348,12996,16223,7538,3892,Tag0,unknown
1643178018116,0,-263,-5.7788085937500005E-5,70,80,41,16754742,14142,26844,24348,12996,16223,7538,3892,Tag0,unknown
1643178018130,0,21,4.614257812500001E-6,70,80,41,16754742,14142,26844,24348,12996,16223,7538,3892,Tag0,unknown
1643178018131,0,23,5.0537109375E-6,70,80,41,16754742,14142,26844,24348,12996,16223,7538,3892,Tag0,unknown
1643178018132,0,53,1.1645507812500002E-5,70,80,41,16754742,14142,26844,24348,12996,16223,7538,3892,Tag0,unknown
1643178018146,0,48,1.0546875E-5,70,80,41,16754742,14142,26844,24348,12996,16223,7538,3892,Tag0,unknown
1643178018147,0,33,7.2509765625E-6,70,80,41,16754742,14142,26844,24348,12996,16223,7538,3892,Tag0,unknown
1643178018149,0,40,8.7890625E-6,70,80,41,16754742,14142,26844,24348,12996,16223,7538,3892,Tag0,unknown
1643178018163,0,70,1.5380859375E-5,70,80,41,16754742,14142,26844,24348,12996,16223,7538,3892,Tag0,unknown
1643178018164,0,28,6.15234375E-6,70,80,41,16754742,14142,26844,24348,12996,16223,7538,3892,Tag0,unknown
1643178018179,0,74,1.6259765625E-5,70,80,41,16754742,14142,26844,24348,12996,16223,7538,3892,Tag0,unknown
1643178018180,0,-262,-5.7568359375E-5,70,80,41,16754742,14142,26844,24348,12996,16223,7538,3892,Tag0,unknown
1643178018196,0,26,5.712890625E-6,70,80,41,16754742,14142,26844,24348,12996,16223,7538,3892,Tag0,unknown
1643178018197,0,28,6.15234375E-6,70,80,41,16754742,14142,26844,24348,12996,16223,7538,3892,Tag0,unknown
1643178018198,0,26,5.712890625E-6,70,80,41,16754742,14142,26844,24348,12996,16223,7538,3892,Tag0,unknown
1643178018199,0,27,5.9326171875000005E-6,70,80,41,16754742,14142,26844,24348,12996,16223,7538,3892,Tag0,unknown
1643178018200,0,23,5.0537109375E-6,70,80,41,16754742,14142,26844,24348,12996,16223,7538,3892,Tag0,unknown
1643178018214,0,12,2.63671875E-6,70,80,41,16754742,14142,26844,24348,12996,16223,7538,3892,Tag0,unknown
1643178018215,0,16,3.515625E-6,70,80,41,16754742,14142,26844,24348,12996,16223,7538,3892,Tag0,unknown
1643178018216,0,-257,-5.64697265625E-5,70,80,41,16754742,14142,26844,24348,12996,16223,7538,3892,Tag0,unknown
1643178018217,0,17,3.7353515625000003E-6,70,80,41,16754742,14142,26844,24348,12996,16223,7538,3892,Tag0,unknown
1643178018228,0,-276,-6.064453125E-5,70,80,41,16754742,14142,26844,24348,12996,16223,7538,3892,Tag0,unknown
1643178018229,0,-275,-6.04248046875E-5,70,80,41,16754742,14142,26844,24348,12996,16223,7538,3892,Tag0,unknown
1643178018246,0,36,7.91015625E-6,70,80,41,16754742,14142,26844,24348,12996,16223,7538,3892,Tag0,unknown
1643178018247,0,12,2.63671875E-6,70,80,41,16754742,14142,26844,24348,12996,16223,7538,3892,Tag0,unknown
1643178018265,0,17,3.7353515625000003E-6,70,80,41,16754742,14142,26844,24348,12996,16223,7538,3892,Tag0,unknown
1643178018266,0,16,3.515625E-6,70,80,41,16754742,14142,26844,24348,12996,16223,7538,3892,Tag0,unknown
1643178018282,0,32,7.03125E-6,70,80,41,16754742,14142,26844,24348,12996,16223,7538,3892,Tag0,unknown
1643178018283,0,53,1.1645507812500002E-5,70,80,41,16754742,14142,26844,24348,12996,16223,7538,3892,Tag0,unknown
1643178018284,0,38,8.349609375E-6,70,80,41,16754742,14142,26844,24348,12996,16223,7538,3892,Tag0,unknown
1643178018296,0,36,7.91015625E-6,70,80,41,16754742,14142,26844,24348,12996,16223,7538,3892,Tag0,unknown
1643178018297,0,35,7.6904296875E-6,70,80,41,16754742,14142,26844,24348,12996,16223,7538,3892,Tag0,unknown
1643178018313,0,36,7.91015625E-6,70,80,41,16754742,14142,26844,24348,12996,16223,7538,3892,Tag0,unknown
1643178018314,0,26,5.712890625E-6,70,80,41,16754742,14142,26844,24348,12996,16223,7538,3892,Tag0,unknown
1643178018315,0,10,2.197265625E-6,70,80,41,16754742,14142,26844,24348,12996,16223,7538,3892,Tag0,unknown
1643178018329,0,65,1.42822265625E-5,70,80,41,16754742,14142,26844,24348,12996,16223,7538,3892,Tag0,unknown
1643178018330,0,27,5.9326171875000005E-6,70,80,41,16754742,14142,26844,24348,12996,16223,7538,3892,Tag0,unknown
1643178018349,0,50,1.0986328125E-5,70,80,41,16754742,14142,26844,24348,12996,16223,7538,3892,Tag0,unknown
1643178018350,0,67,1.4721679687500002E-5,70,80,41,16754742,14142,26844,24348,12996,16223,7538,3892,Tag0,unknown
1643178018351,0,49,1.07666015625E-5,70,80,41,16754742,14142,26844,24348,12996,16223,7538,3892,Tag0,unknown
1643178018352,0,45,9.8876953125E-6,70,80,41,16754742,14142,26844,24348,12996,16223,7538,3892,Tag0,unknown
1643178018364,0,58,1.2744140625E-5,70,80,41,16754742,14142,26844,24348,12996,16223,7538,3892,Tag0,unknown
1643178018365,0,52,1.142578125E-5,70,80,41,16754742,14142,26844,24348,12996,16223,7538,3892,Tag0,unknown
1643178018379,0,16,3.515625E-6,70,80,41,16754742,14142,26844,24348,12996,16223,7538,3892,Tag0,unknown
1643178018380,0,32,7.03125E-6,70,80,41,16754742,14142,26844,24348,12996,16223,7538,3892,Tag0,unknown
1643178018381,0,26,5.712890625E-6,70,80,41,16754742,14142,26844,24348,12996,16223,7538,3892,Tag0,unknown
1643178018397,0,38,8.349609375E-6,70,80,41,16754742,14142,26844,24348,12996,16223,7538,3892,Tag0,unknown
1643178018398,0,49,1.07666015625E-5,70,80,41,16754742,14142,26844,24348,12996,16223,7538,3892,Tag0,unknown
1643178018399,0,75,1.64794921875E-5,70,80,41,16754742,14142,26844,24348,12996,16223,7538,3892,Tag0,unknown
1643178018413,0,6,1.318359375E-6,70,80,41,16754742,14142,26844,24348,12996,16223,7538,3892,Tag0,unknown
1643178018414,0,27,5.9326171875000005E-6,70,80,41,16754742,14142,26844,24348,12996,16223,7538,3892,Tag0,unknown
1643178018432,0,35,7.6904296875E-6,70,80,41,16754742,14142,26844,24348,12996,16223,7538,3892,Tag0,unknown
1643178018433,0,49,1.07666015625E-5,70,80,41,16754742,14142,26844,24348,12996,16223,7538,3892,Tag0,unknown
1643178018434,0,34,7.4707031250000005E-6,70,80,41,16754742,14142,26844,24348,12996,16223,7538,3892,Tag0,unknown
1643178018448,0,36,7.91015625E-6,70,80,41,16754742,14142,26844,24348,12996,16223,7538,3892,Tag0,unknown
1643178018449,0,41,9.008789062499999E-6,70,80,41,16754742,14142,26844,24348,12996,16223,7538,3892,Tag0,unknown
1643178018465,0,4,8.7890625E-7,70,80,41,16754742,14142,26844,24348,12996,16223,7538,3892,Tag0,unknown
1643178018466,0,57,1.2524414062500001E-5,70,80,41,16754742,14142,26844,24348,12996,16223,7538,3892,Tag0,unknown
1643178018467,0,44,9.66796875E-6,70,80,41,16754742,14142,26844,24348,12996,16223,7538,3892,Tag0,unknown
1643178018481,0,28,6.15234375E-6,70,80,41,16754742,14142,26844,24348,12996,16223,7538,3892,Tag0,unknown
1643178018482,0,10,2.197265625E-6,70,80,41,16754742,14142,26844,24348,12996,16223,7538,3892,Tag0,unknown
1643178018497,0,32,7.03125E-6,70,80,41,16754742,14142,26844,24348,12996,16223,7538,3892,Tag0,unknown
1643178018498,0,25,5.4931640625E-6,70,80,41,16754742,14142,26844,24348,12996,16223,7538,3892,Tag0,unknown
1643178018499,0,21,4.614257812500001E-6,70,80,41,16754742,14142,26844,24348,12996,16223,7538,3892,Tag0,unknown
1643178018500,0,0,0.0,70,80,41,16754742,14142,26844,24348,12996,16223,7538,3892,Tag0,unknown
1643178018513,0,19,4.1748046875E-6,70,80,41,16754742,14142,26844,24348,12996,16223,7538,3892,Tag0,unknown
1643178018514,0,38,8.349609375E-6,70,80,41,16754742,14142,26844,24348,12996,16223,7538,3892,Tag0,unknown
1643178018530,0,27,5.9326171875000005E-6,70,80,41,16754742,14142,26844,24348,12996,16223,7538,3892,Tag0,unknown
1643178018531,0,0,0.0,70,80,41,16754742,14142,26844,24348,12996,16223,7538,3892,Tag0,unknown
1643178018547,0,-269,-5.9106445312499996E-5,70,80,41,16754742,14142,26844,24348,12996,16223,7538,3892,Tag0,unknown
1643178018548,0,-264,-5.80078125E-5,70,80,41,16754742,14142,26844,24348,12996,16223,7538,3892,Tag0,unknown
1643178018564,0,-266,-5.8447265625E-5,70,80,41,16754742,14142,26844,24348,12996,16223,7538,3892,Tag0,unknown
1643178018565,0,42,9.228515625000002E-6,70,80,41,16754742,14142,26844,24348,12996,16223,7538,3892,Tag0,unknown
1643178018581,0,18,3.955078125E-6,70,80,41,16754742,14142,26844,24348,12996,16223,7538,3892,Tag0,unknown
1643178018582,0,-268,-5.8886718750000006E-5,70,80,41,16754742,14142,26844,24348,12996,16223,7538,3892,Tag0,unknown
1643178018583,0,-265,-5.82275390625E-5,70,80,41,16754742,14142,26844,24348,12996,16223,7538,3892,Tag0,unknown
1643178018600,0,-262,-5.7568359375E-5,80,81,41,16771780,16331,9753,4929,8170,6793,2015,2355,Tag0,unknown
1643178018601,0,-268,-5.8886718750000006E-5,80,81,41,16771780,16331,9753,4929,8170,6793,2015,2355,Tag0,unknown
1643178018602,0,21,4.614257812500001E-6,80,81,41,16771780,16331,9753,4929,8170,6793,2015,2355,Tag0,unknown
1643178018616,0,-266,-5.8447265625E-5,80,81,41,16771780,16331,9753,4929,8170,6793,2015,2355,Tag0,unknown
1643178018620,0,0,0.0,80,81,41,16771780,16331,9753,4929,8170,6793,2015,2355,Tag0,unknown
1643178018621,0,-257,-5.64697265625E-5,80,81,41,16771780,16331,9753,4929,8170,6793,2015,2355,Tag0,unknown
1643178018630,0,3,6.591796875E-7,80,81,41,16771780,16331,9753,4929,8170,6793,2015,2355,Tag0,unknown
1643178018631,0,20,4.39453125E-6,80,81,41,16771780,16331,9753,4929,8170,6793,2015,2355,Tag0,unknown
1643178018647,0,50,1.0986328125E-5,80,81,41,16771780,16331,9753,4929,8170,6793,2015,2355,Tag0,unknown
1643178018648,0,58,1.2744140625E-5,80,81,41,16771780,16331,9753,4929,8170,6793,2015,2355,Tag0,unknown
1643178018649,0,19,4.1748046875E-6,80,81,41,16771780,16331,9753,4929,8170,6793,2015,2355,Tag0,unknown
1643178018665,0,89,1.95556640625E-5,80,81,41,16771780,16331,9753,4929,8170,6793,2015,2355,Tag0,unknown
1643178018666,0,66,1.4501953125E-5,80,81,41,16771780,16331,9753,4929,8170,6793,2015,2355,Tag0,unknown
1643178018682,0,21,4.614257812500001E-6,80,81,41,16771780,16331,9753,4929,8170,6793,2015,2355,Tag0,unknown
1643178018683,0,57,1.2524414062500001E-5,80,81,41,16771780,16331,9753,4929,8170,6793,2015,2355,Tag0,unknown
1643178018684,0,19,4.1748046875E-6,80,81,41,16771780,16331,9753,4929,8170,6793,2015,2355,Tag0,unknown
1643178018698,0,44,9.66796875E-6,80,81,41,16771780,16331,9753,4929,8170,6793,2015,2355,Tag0,unknown
1643178018699,0,90,1.9775390625E-5,80,81,41,16771780,16331,9753,4929,8170,6793,2015,2355,Tag0,unknown
1643178018700,0,54,1.1865234375000001E-5,80,81,41,16771780,16331,9753,4929,8170,6793,2015,2355,Tag0,unknown
1643178018713,0,76,1.669921875E-5,80,81,41,16771780,16331,9753,4929,8170,6793,2015,2355,Tag0,unknown
1643178018714,0,105,2.30712890625E-5,80,81,41,16771780,16331,9753,4929,8170,6793,2015,2355,Tag0,unknown
1643178018732,0,51,1.1206054687499999E-5,80,81,41,16771780,16331,9753,4929,8170,6793,2015,2355,Tag0,unknown
1643178018733,0,27,5.9326171875000005E-6,80,81,41,16771780,16331,9753,4929,8170,6793,2015,2355,Tag0,unknown
1643178018747,0,-278,-6.108398437500001E-5,80,81,41,16771780,16331,9753,4929,8170,6793,2015,2355,Tag0,unknown
1643178018748,0,-285,-6.26220703125E-5,80,81,41,16771780,16331,9753,4929,8170,6793,2015,2355,Tag0,unknown
1643178018749,0,-283,-6.218261718750001E-5,80,81,41,16771780,16331,9753,4929,8170,6793,2015,2355,Tag0,unknown
1643178018764,0,-267,-5.86669921875E-5,80,81,41,16771780,16331,9753,4929,8170,6793,2015,2355,Tag0,unknown
1643178018765,0,73,1.6040039062500002E-5,80,81,41,16771780,16331,9753,4929,8170,6793,2015,2355,Tag0,unknown
1643178018795,0,52,1.142578125E-5,80,81,41,16771780,16331,9753,4929,8170,6793,2015,2355,Tag0,unknown
1643178018796,0,34,7.4707031250000005E-6,80,81,41,16771780,16331,9753,4929,8170,6793,2015,2355,Tag0,unknown
1643178018816,0,65,1.42822265625E-5,80,81,41,16771780,16331,9753,4929,8170,6793,2015,2355,Tag0,unknown
1643178018832,0,80,1.7578125E-5,80,81,41,16771780,16331,9753,4929,8170,6793,2015,2355,Tag0,unknown
1643178018833,0,69,1.51611328125E-5,80,81,41,16771780,16331,9753,4929,8170,6793,2015,2355,Tag0,unknown
1643178018848,0,-279,-6.13037109375E-5,80,81,41,16771780,16331,9753,4929,8170,6793,2015,2355,Tag0,unknown
1643178018849,0,-273,-5.998535156250001E-5,80,81,41,16771780,16331,9753,4929,8170,6793,2015,2355,Tag0,unknown
1643178018850,0,-315,-6.92138671875E-5,80,81,41,16771780,16331,9753,4929,8170,6793,2015,2355,Tag0,unknown
1643178018851,0,-331,-7.272949218750001E-5,80,81,41,16771780,16331,9753,4929,8170,6793,2015,2355,Tag0,unknown
1643178018852,0,-354,-7.778320312500001E-5,80,81,41,16771780,16331,9753,4929,8170,6793,2015,2355,Tag0,unknown
1643178018853,0,-355,-7.80029296875E-5,80,81,41,16771780,16331,9753,4929,8170,6793,2015,2355,Tag0,unknown
1643178018854,0,-273,-5.998535156250001E-5,80,81,41,16771780,16331,9753,4929,8170,6793,2015,2355,Tag0,unknown
1643178018855,0,-343,-7.53662109375E-5,80,81,41,16771780,16331,9753,4929,8170,6793,2015,2355,Tag0,unknown
1643178018865,0,-298,-6.5478515625E-5,80,81,41,16771780,16331,9753,4929,8170,6793,2015,2355,Tag0,unknown
1643178018866,0,-280,-6.15234375E-5,80,81,41,16771780,16331,9753,4929,8170,6793,2015,2355,Tag0,unknown
1643178018881,0,61,1.34033203125E-5,80,81,41,16771780,16331,9753,4929,8170,6793,2015,2355,Tag0,unknown
1643178018882,0,85,1.86767578125E-5,80,81,41,16771780,16331,9753,4929,8170,6793,2015,2355,Tag0,unknown
1643178018897,0,86,1.8896484375000003E-5,80,81,41,16771780,16331,9753,4929,8170,6793,2015,2355,Tag0,unknown
1643178018898,0,97,2.13134765625E-5,80,81,41,16771780,16331,9753,4929,8170,6793,2015,2355,Tag0,unknown
1643178018899,0,73,1.6040039062500002E-5,80,81,41,16771780,16331,9753,4929,8170,6793,2015,2355,Tag0,unknown
1643178018914,0,84,1.8457031250000004E-5,80,81,41,16771780,16331,9753,4929,8170,6793,2015,2355,Tag0,unknown
1643178018915,0,84,1.8457031250000004E-5,80,81,41,16771780,16331,9753,4929,8170,6793,2015,2355,Tag0,unknown
1643178018916,0,75,1.64794921875E-5,80,81,41,16771780,16331,9753,4929,8170,6793,2015,2355,Tag0,unknown
1643178018931,0,68,1.4941406250000001E-5,80,81,41,16771780,16331,9753,4929,8170,6793,2015,2355,Tag0,unknown
1643178018932,0,89,1.95556640625E-5,80,81,41,16771780,16331,9753,4929,8170,6793,2015,2355,Tag0,unknown
1643178018933,0,103,2.26318359375E-5,80,81,41,16771780,16331,9753,4929,8170,6793,2015,2355,Tag0,unknown
1643178018948,0,90,1.9775390625E-5,80,81,41,16771780,16331,9753,4929,8170,6793,2015,2355,Tag0,unknown
1643178018949,0,112,2.4609375E-5,80,81,41,16771780,16331,9753,4929,8170,6793,2015,2355,Tag0,unknown
1643178018950,0,106,2.3291015625000003E-5,80,81,41,16771780,16331,9753,4929,8170,6793,2015,2355,Tag0,unknown
1643178018967,0,68,1.4941406250000001E-5,80,81,41,16771780,16331,9753,4929,8170,6793,2015,2355,Tag0,unknown
1643178018968,0,118,2.5927734375E-5,80,81,41,16771780,16331,9753,4929,8170,6793,2015,2355,Tag0,unknown
1643178018969,0,53,1.1645507812500002E-5,80,81,41,16771780,16331,9753,4929,8170,6793,2015,2355,Tag0,unknown
1643178018983,0,88,1.93359375E-5,80,81,41,16771780,16331,9753,4929,8170,6793,2015,2355,Tag0,unknown
1643178018984,0,23,5.0537109375E-6,80,81,41,16771780,16331,9753,4929,8170,6793,2015,2355,Tag0,unknown
1643178018985,0,115,2.52685546875E-5,80,81,41,16771780,16331,9753,4929,8170,6793,2015,2355,Tag0,unknown
1643178018999,0,67,1.4721679687500002E-5,80,81,41,16771780,16331,9753,4929,8170,6793,2015,2355,Tag0,unknown
1643178019000,0,69,1.51611328125E-5,80,81,41,16771780,16331,9753,4929,8170,6793,2015,2355,Tag0,unknown
1643178019001,0,58,1.2744140625E-5,80,81,41,16771780,16331,9753,4929,8170,6793,2015,2355,Tag0,unknown
1643178019016,0,54,1.1865234375000001E-5,80,81,41,16771780,16331,9753,4929,8170,6793,2015,2355,Tag0,unknown
1643178019017,0,70,1.5380859375E-5,80,81,41,16771780,16331,9753,4929,8170,6793,2015,2355,Tag0,unknown
1643178019018,0,53,1.1645507812500002E-5,80,81,41,16771780,16331,9753,4929,8170,6793,2015,2355,Tag0,unknown
1643178019034,0,70,1.5380859375E-5,80,81,41,16771780,16331,9753,4929,8170,6793,2015,2355,Tag0,unknown
1643178019035,0,36,7.91015625E-6,80,81,41,16771780,16331,9753,4929,8170,6793,2015,2355,Tag0,unknown
1643178019036,0,4,8.7890625E-7,80,81,41,16771780,16331,9753,4929,8170,6793,2015,2355,Tag0,unknown
1643178019048,0,39,8.5693359375E-6,80,81,41,16771780,16331,9753,4929,8170,6793,2015,2355,Tag0,unknown
1643178019049,0,52,1.142578125E-5,80,81,41,16771780,16331,9753,4929,8170,6793,2015,2355,Tag0,unknown
1643178019065,0,117,2.5708007812499998E-5,80,81,41,16771780,16331,9753,4929,8170,6793,2015,2355,Tag0,unknown
1643178019066,0,73,1.6040039062500002E-5,80,81,41,16771780,16331,9753,4929,8170,6793,2015,2355,Tag0,unknown
1643178019081,0,71,1.56005859375E-5,80,81,41,16771780,16331,9753,4929,8170,6793,2015,2355,Tag0,unknown
1643178019082,0,83,1.82373046875E-5,80,81,41,16771780,16331,9753,4929,8170,6793,2015,2355,Tag0,unknown
1643178019083,0,86,1.8896484375000003E-5,80,81,41,16771780,16331,9753,4929,8170,6793,2015,2355,Tag0,unknown
1643178019099,0,32,7.03125E-6,80,81,41,16771780,16331,9753,4929,8170,6793,2015,2355,Tag0,unknown
1643178019100,0,-266,-5.8447265625E-5,80,81,41,16771780,16331,9753,4929,8170,6793,2015,2355,Tag0,unknown
1643178019115,0,-259,-5.69091796875E-5,80,81,41,16771780,16331,9753,4929,8170,6793,2015,2355,Tag0,unknown
1643178019116,0,13,2.8564453125E-6,80,81,41,16771780,16331,9753,4929,8170,6793,2015,2355,Tag0,unknown
1643178019117,0,4,8.7890625E-7,80,81,41,16771780,16331,9753,4929,8170,6793,2015,2355,Tag0,unknown
1643178019131,0,36,7.91015625E-6,80,81,41,16771780,16331,9753,4929,8170,6793,2015,2355,Tag0,unknown
1643178019132,0,58,1.2744140625E-5,80,81,41,16771780,16331,9753,4929,8170,6793,2015,2355,Tag0,unknown
1643178019133,0,67,1.4721679687500002E-5,80,81,41,16771780,16331,9753,4929,8170,6793,2015,2355,Tag0,unknown
1643178019147,0,68,1.4941406250000001E-5,80,81,41,16771780,16331,9753,4929,8170,6793,2015,2355,Tag0,unknown
1643178019148,0,52,1.142578125E-5,80,81,41,16771780,16331,9753,4929,8170,6793,2015,2355,Tag0,unknown
1643178019149,0,43,9.448242187500001E-6,80,81,41,16771780,16331,9753,4929,8170,6793,2015,2355,Tag0,unknown
1643178019166,0,93,2.04345703125E-5,80,81,41,16771780,16331,9753,4929,8170,6793,2015,2355,Tag0,unknown
1643178019167,0,85,1.86767578125E-5,80,81,41,16771780,16331,9753,4929,8170,6793,2015,2355,Tag0,unknown
1643178019168,0,67,1.4721679687500002E-5,80,81,41,16771780,16331,9753,4929,8170,6793,2015,2355,Tag0,unknown
1643178019169,0,4,8.7890625E-7,80,81,41,16771780,16331,9753,4929,8170,6793,2015,2355,Tag0,unknown
1643178019183,0,-298,-6.5478515625E-5,80,81,41,16771780,16331,9753,4929,8170,6793,2015,2355,Tag0,unknown
1643178019184,0,45,9.8876953125E-6,80,81,41,16771780,16331,9753,4929,8170,6793,2015,2355,Tag0,unknown
1643178019185,0,32,7.03125E-6,80,81,41,16771780,16331,9753,4929,8170,6793,2015,2355,Tag0,unknown
1643178019199,0,12,2.63671875E-6,80,81,41,16771780,16331,9753,4929,8170,6793,2015,2355,Tag0,unknown
