timestampMs,poorSignal,eegRawValue,eegRawValueVolts,attention,meditation,blinkStrength,delta,theta,alphaLow,alphaHigh,betaLow,betaHigh,gammaLow,gammaMid,tagEvent,location
1623577035233,0,20,4.39453125E-6,60,61,36,216795,21665,29261,26988,23991,3079,1477,1635,Tag0,unknown
1623577035246,0,20,4.39453125E-6,60,61,36,216795,21665,29261,26988,23991,3079,1477,1635,Tag0,unknown
1623577035247,0,20,4.39453125E-6,60,61,36,216795,21665,29261,26988,23991,3079,1477,1635,Tag0,unknown
1623577035248,0,16,3.515625E-6,60,61,36,216795,21665,29261,26988,23991,3079,1477,1635,Tag0,unknown
1623577035262,0,6,1.318359375E-6,60,61,36,216795,21665,29261,26988,23991,3079,1477,1635,Tag0,unknown
1623577035263,0,39,8.5693359375E-6,60,61,36,216795,21665,29261,26988,23991,3079,1477,1635,Tag0,unknown
1623577035278,0,54,1.1865234375000001E-5,60,61,36,216795,21665,29261,26988,23991,3079,1477,1635,Tag0,unknown
1623577035279,0,65,1.42822265625E-5,60,61,36,216795,21665,29261,26988,23991,3079,1477,1635,Tag0,unknown
1623577035295,0,68,1.4941406250000001E-5,60,61,36,216795,21665,29261,26988,23991,3079,1477,1635,Tag0,unknown
1623577035296,0,36,7.91015625E-6,60,61,36,216795,21665,29261,26988,23991,3079,1477,1635,Tag0,unknown
1623577035297,0,38,8.349609375E-6,60,61,36,216795,21665,29261,26988,23991,3079,1477,1635,Tag0,unknown
1623577035312,0,35,7.6904296875E-6,60,61,36,216795,21665,29261,26988,23991,3079,1477,1635,Tag0,unknown
1623577035313,0,44,9.66796875E-6,60,61,36,216795,21665,29261,26988,23991,3079,1477,1635,Tag0,unknown
1623577035314,0,96,2.109375E-5,60,61,36,216795,21665,29261,26988,23991,3079,1477,1635,Tag0,unknown
1623577035328,0,82,1.8017578124999998E-5,60,61,36,216795,21665,29261,26988,23991,3079,1477,1635,Tag0,unknown
1623577035329,0,60,1.318359375E-5,60,61,36,216795,21665,29261,26988,23991,3079,1477,1635,Tag0,unknown
1623577035330,0,43,9.448242187500001E-6,60,61,36,216795,21665,29261,26988,23991,3079,1477,1635,Tag0,unknown
1623577035346,0,22,4.833984375E-6,60,61,36,216795,21665,29261,26988,23991,3079,1477,1635,Tag0,unknown
1623577035347,0,16,3.515625E-6,60,61,36,216795,21665,29261,26988,23991,3079,1477,1635,Tag0,unknown
1623577035348,0,43,9.448242187500001E-6,60,61,36,216795,21665,29261,26988,23991,3079,1477,1635,Tag0,unknown
1623577035362,0,42,9.228515625000002E-6,60,61,36,216795,21665,29261,26988,23991,3079,1477,1635,Tag0,unknown
1623577035363,0,36,7.91015625E-6,60,61,36,216795,21665,29261,26988,23991,3079,1477,1635,Tag0,unknown
1623577035364,0,19,4.1748046875E-6,60,61,36,216795,21665,29261,26988,23991,3079,1477,1635,Tag0,unknown
1623577035381,0,3,6.591796875E-7,60,61,36,216795,21665,29261,26988,23991,3079,1477,1635,Tag0,unknown
1623577035382,0,19,4.1748046875E-6,60,61,36,216795,21665,29261,26988,23991,3079,1477,1635,Tag0,unknown
1623577035397,0,10,2.197265625E-6,60,61,36,216795,21665,29261,26988,23991,3079,1477,1635,Tag0,unknown
1623577035398,0,33,7.2509765625E-6,60,61,36,216795,21665,29261,26988,23991,3079,1477,1635,Tag0,unknown
1623577035413,0,24,5.2734375E-6,60,61,36,216795,21665,29261,26988,23991,3079,1477,1635,Tag0,unknown
1623577035414,0,23,5.0537109375E-6,60,61,36,216795,21665,29261,26988,23991,3079,1477,1635,Tag0,unknown
1623577035415,0,17,3.7353515625000003E-6,60,61,36,216795,21665,29261,26988,23991,3079,1477,1635,Tag0,unknown
1623577035430,0,2,4.39453125E-7,60,61,36,216795,21665,29261,26988,23991,3079,1477,1635,Tag0,unknown
1623577035431,0,-280,-6.15234375E-5,60,61,36,216795,21665,29261,26988,23991,3079,1477,1635,Tag0,unknown
1623577035446,0,6,1.318359375E-6,60,61,36,216795,21665,29261,26988,23991,3079,1477,1635,Tag0,unknown
1623577035447,0,18,3.955078125E-6,60,61,36,216795,21665,29261,26988,23991,3079,1477,1635,Tag0,unknown
1623577035448,0,66,1.4501953125E-5,60,61,36,216795,21665,29261,26988,23991,3079,1477,1635,Tag0,unknown
1623577035463,0,75,1.64794921875E-5,60,61,36,216795,21665,29261,26988,23991,3079,1477,1635,Tag0,unknown
1623577035464,0,53,1.1645507812500002E-5,60,61,36,216795,21665,29261,26988,23991,3079,1477,1635,Tag0,unknown
1623577035478,0,68,1.4941406250000001E-5,60,61,36,216795,21665,29261,26988,23991,3079,1477,1635,Tag0,unknown
1623577035479,0,76,1.669921875E-5,60,61,36,216795,21665,29261,26988,23991,3079,1477,1635,Tag0,unknown
1623577035480,0,53,1.1645507812500002E-5,60,61,36,216795,21665,29261,26988,23991,3079,1477,1635,Tag0,unknown
1623577035498,0,59,1.29638671875E-5,60,61,36,216795,21665,29261,26988,23991,3079,1477,1635,Tag0,unknown
1623577035499,0,68,1.4941406250000001E-5,60,61,36,216795,21665,29261,26988,23991,3079,1477,1635,Tag0,unknown
1623577035513,0,53,1.1645507812500002E-5,60,61,36,216795,21665,29261,26988,23991,3079,1477,1635,Tag0,unknown
1623577035514,0,54,1.1865234375000001E-5,60,61,36,216795,21665,29261,26988,23991,3079,1477,1635,Tag0,unknown
1623577035529,0,100,2.197265625E-5,60,61,36,216795,21665,29261,26988,23991,3079,1477,1635,Tag0,unknown
1623577035530,0,91,1.99951171875E-5,60,61,36,216795,21665,29261,26988,23991,3079,1477,1635,Tag0,unknown
1623577035531,0,96,2.109375E-5,60,61,36,216795,21665,29261,26988,23991,3079,1477,1635,Tag0,unknown
1623577035547,0,75,1.64794921875E-5,60,61,36,216795,21665,29261,26988,23991,3079,1477,1635,Tag0,unknown
1623577035548,0,93,2.04345703125E-5,60,61,36,216795,21665,29261,26988,23991,3079,1477,1635,Tag0,unknown
1623577035562,0,82,1.8017578124999998E-5,60,61,36,216795,21665,29261,26988,23991,3079,1477,1635,Tag0,unknown
1623577035563,0,73,1.6040039062500002E-5,60,61,36,216795,21665,29261,26988,23991,3079,1477,1635,Tag0,unknown
1623577035564,0,90,1.9775390625E-5,60,61,36,216795,21665,29261,26988,23991,3079,1477,1635,Tag0,unknown
1623577035579,0,86,1.8896484375000003E-5,60,61,36,216795,21665,29261,26988,23991,3079,1477,1635,Tag0,unknown
1623577035580,0,101,2.2192382812500002E-5,60,61,36,216795,21665,29261,26988,23991,3079,1477,1635,Tag0,unknown
1623577035598,0,89,1.95556640625E-5,60,61,36,216795,21665,29261,26988,23991,3079,1477,1635,Tag0,unknown
1623577035599,0,17,3.7353515625000003E-6,60,61,36,216795,21665,29261,26988,23991,3079,1477,1635,Tag0,unknown
1623577035612,0,-291,-6.39404296875E-5,60,61,36,216795,21665,29261,26988,23991,3079,1477,1635,Tag0,unknown
1623577035632,0,4,8.7890625E-7,60,61,36,216795,21665,29261,26988,23991,3079,1477,1635,Tag0,unknown
1623577035633,0,17,3.7353515625000003E-6,60,61,36,216795,21665,29261,26988,23991,3079,1477,1635,Tag0,unknown
1623577035662,0,35,7.6904296875E-6,60,61,36,216795,21665,29261,26988,23991,3079,1477,1635,Tag0,unknown
1623577035682,0,50,1.0986328125E-5,60,61,36,216795,21665,29261,26988,23991,3079,1477,1635,Tag0,unknown
1623577035703,0,21,4.614257812500001E-6,60,61,36,216795,21665,29261,26988,23991,3079,1477,1635,Tag0,unknown
1623577035714,0,3,6.591796875E-7,60,61,36,216795,21665,29261,26988,23991,3079,1477,1635,Tag0,unknown
1623577035715,0,-298,-6.5478515625E-5,60,61,36,216795,21665,29261,26988,23991,3079,1477,1635,Tag0,unknown
1623577035717,0,-332,-7.294921875E-5,60,61,36,216795,21665,29261,26988,23991,3079,1477,1635,Tag0,unknown
1623577035718,0,-346,-7.6025390625E-5,60,61,36,216795,21665,29261,26988,23991,3079,1477,1635,Tag0,unknown
1623577035719,0,-346,-7.6025390625E-5,60,61,36,216795,21665,29261,26988,23991,3079,1477,1635,Tag0,unknown
1623577035730,0,-331,-7.272949218750001E-5,60,61,36,216795,21665,29261,26988,23991,3079,1477,1635,Tag0,unknown
1623577035731,0,-346,-7.6025390625E-5,60,61,36,216795,21665,29261,26988,23991,3079,1477,1635,Tag0,unknown
1623577035732,0,-354,-7.778320312500001E-5,60,61,36,216795,21665,29261,26988,23991,3079,1477,1635,Tag0,unknown
1623577035733,0,-140,-3.076171875E-5,60,61,36,216795,21665,29261,26988,23991,3079,1477,1635,Tag0,unknown
1623577035734,0,-381,-8.371582031250001E-5,60,61,36,216795,21665,29261,26988,23991,3079,1477,1635,Tag0,unknown
1623577035735,0,-338,-7.426757812499999E-5,60,61,36,216795,21665,29261,26988,23991,3079,1477,1635,Tag0,unknown
1623577035745,0,-267,-5.86669921875E-5,60,61,36,216795,21665,29261,26988,23991,3079,1477,1635,Tag0,unknown
1623577035746,0,-278,-6.108398437500001E-5,60,61,36,216795,21665,29261,26988,23991,3079,1477,1635,Tag0,unknown
1623577035763,0,37,8.1298828125E-6,51,63,36,154944,94332,8882,21434,10397,13198,1377,875,Tag0,unknown
1623577035764,0,18,3.955078125E-6,51,63,36,154944,94332,8882,21434,10397,13198,1377,875,Tag0,unknown
1623577035765,0,49,1.07666015625E-5,51,63,36,154944,94332,8882,21434,10397,13198,1377,875,Tag0,unknown
1623577035766,0,103,2.26318359375E-5,51,63,36,154944,94332,8882,21434,10397,13198,1377,875,Tag0,unknown
1623577035784,0,-36,-7.91015625E-6,51,63,36,154944,94332,8882,21434,10397,13198,1377,875,Tag0,unknown
1623577035785,0,-3,-6.591796875E-7,51,63,36,154944,94332,8882,21434,10397,13198,1377,875,Tag0,unknown
1623577035786,0,280,6.15234375E-5,51,63,40,154944,94332,8882,21434,10397,13198,1377,875,Tag0,unknown
1623577035796,0,130,2.8564453125E-5,51,63,40,154944,94332,8882,21434,10397,13198,1377,875,Tag0,unknown
1623577035797,0,146,3.2080078125000004E-5,51,63,40,154944,94332,8882,21434,10397,13198,1377,875,Tag0,unknown
1623577035798,0,140,3.076171875E-5,51,63,40,154944,94332,8882,21434,10397,13198,1377,875,Tag0,unknown
1623577035814,0,167,3.6694335937500004E-5,51,63,40,154944,94332,8882,21434,10397,13198,1377,875,Tag0,unknown
1623577035815,0,368,8.0859375E-5,51,63,40,154944,94332,8882,21434,10397,13198,1377,875,Tag0,unknown
1623577035829,0,314,6.8994140625E-5,51,63,40,154944,94332,8882,21434,10397,13198,1377,875,Tag0,unknown
1623577035830,0,309,6.78955078125E-5,51,63,40,154944,94332,8882,21434,10397,13198,1377,875,Tag0,unknown
1623577035847,0,-4,-8.7890625E-7,51,63,40,154944,94332,8882,21434,10397,13198,1377,875,Tag0,unknown
1623577035848,0,-8,-1.7578125E-6,51,63,40,154944,94332,8882,21434,10397,13198,1377,875,Tag0,unknown
1623577035849,0,257,5.64697265625E-5,51,63,40,154944,94332,8882,21434,10397,13198,1377,875,Tag0,unknown
1623577035850,0,-20,-4.39453125E-6,51,63,40,154944,94332,8882,21434,10397,13198,1377,875,Tag0,unknown
1623577035866,0,-39,-8.5693359375E-6,51,63,40,154944,94332,8882,21434,10397,13198,1377,875,Tag0,unknown
1623577035867,0,-44,-9.66796875E-6,51,63,40,154944,94332,8882,21434,10397,13198,1377,875,Tag0,unknown
1623577035868,0,-64,-1.40625E-5,51,63,40,154944,94332,8882,21434,10397,13198,1377,875,Tag0,unknown
1623577035881,0,113,2.48291015625E-5,51,63,40,154944,94332,8882,21434,10397,13198,1377,875,Tag0,unknown
1623577035882,0,106,2.3291015625000003E-5,51,63,40,154944,94332,8882,21434,10397,13198,1377,875,Tag0,unknown
1623577035896,0,72,1.58203125E-5,51,63,40,154944,94332,8882,21434,10397,13198,1377,875,Tag0,unknown
1623577035897,0,22,4.833984375E-6,51,63,40,154944,94332,8882,21434,10397,13198,1377,875,Tag0,unknown
1623577035913,0,19,4.1748046875E-6,51,63,40,154944,94332,8882,21434,10397,13198,1377,875,Tag0,unknown
1623577035914,0,24,5.2734375E-6,51,63,40,154944,94332,8882,21434,10397,13198,1377,875,Tag0,unknown
1623577035915,0,3,6.591796875E-7,51,63,40,154944,94332,8882,21434,10397,13198,1377,875,Tag0,unknown
1623577035930,0,-285,-6.26220703125E-5,51,63,40,154944,94332,8882,21434,10397,13198,1377,875,Tag0,unknown
1623577035931,0,-292,-6.416015625000001E-5,51,63,40,154944,94332,8882,21434,10397,13198,1377,875,Tag0,unknown
1623577035947,0,-313,-6.87744140625E-5,51,63,40,154944,94332,8882,21434,10397,13198,1377,875,Tag0,unknown
1623577035948,0,-289,-6.35009765625E-5,51,63,40,154944,94332,8882,21434,10397,13198,1377,875,Tag0,unknown
1623577035968,0,-299,-6.56982421875E-5,51,63,40,154944,94332,8882,21434,10397,13198,1377,875,Tag0,unknown
1623577035969,0,-327,-7.18505859375E-5,51,63,40,154944,94332,8882,21434,10397,13198,1377,875,Tag0,unknown
1623577035970,0,-346,-7.6025390625E-5,51,63,40,154944,94332,8882,21434,10397,13198,1377,875,Tag0,unknown
1623577035971,0,-345,-7.58056640625E-5,51,63,40,154944,94332,8882,21434,10397,13198,1377,875,Tag0,unknown
1623577035972,0,-293,-6.43798828125E-5,51,63,40,154944,94332,8882,21434,10397,13198,1377,875,Tag0,unknown
1623577035982,0,-291,-6.39404296875E-5,51,63,40,154944,94332,8882,21434,10397,13198,1377,875,Tag0,unknown
1623577035983,0,6,1.318359375E-6,51,63,40,154944,94332,8882,21434,10397,13198,1377,875,Tag0,unknown
1623577035996,0,10,2.197265625E-6,51,63,40,154944,94332,8882,21434,10397,13198,1377,875,Tag0,unknown
1623577035997,0,-306,-6.723632812500001E-5,51,63,40,154944,94332,8882,21434,10397,13198,1377,875,Tag0,unknown
1623577036014,0,-298,-6.5478515625E-5,51,63,40,154944,94332,8882,21434,10397,13198,1377,875,Tag0,unknown
1623577036015,0,-302,-6.6357421875E-5,51,63,40,154944,94332,8882,21434,10397,13198,1377,875,Tag0,unknown
1623577036016,0,-362,-7.954101562500001E-5,51,63,40,154944,94332,8882,21434,10397,13198,1377,875,Tag0,unknown
1623577036029,0,-357,-7.844238281250001E-5,51,63,40,154944,94332,8882,21434,10397,13198,1377,875,Tag0,unknown
1623577036030,0,-362,-7.954101562500001E-5,51,63,40,154944,94332,8882,21434,10397,13198,1377,875,Tag0,unknown
1623577036031,0,-270,-5.9326171875E-5,51,63,40,154944,94332,8882,21434,10397,13198,1377,875,Tag0,unknown
1623577036048,0,-267,-5.86669921875E-5,51,63,40,154944,94332,8882,21434,10397,13198,1377,875,Tag0,unknown
1623577036049,0,-278,-6.108398437500001E-5,51,63,40,154944,94332,8882,21434,10397,13198,1377,875,Tag0,unknown
1623577036050,0,26,5.712890625E-6,51,63,40,154944,94332,8882,21434,10397,13198,1377,875,Tag0,unknown
1623577036065,0,28,6.15234375E-6,51,63,40,154944,94332,8882,21434,10397,13198,1377,875,Tag0,unknown
1623577036066,0,23,5.0537109375E-6,51,63,40,154944,94332,8882,21434,10397,13198,1377,875,Tag0,unknown
1623577036067,0,-268,-5.8886718750000006E-5,51,63,40,154944,94332,8882,21434,10397,13198,1377,875,Tag0,unknown
1623577036080,0,-290,-6.3720703125E-5,51,63,40,154944,94332,8882,21434,10397,13198,1377,875,Tag0,unknown
1623577036081,0,-308,-6.767578125E-5,51,63,40,154944,94332,8882,21434,10397,13198,1377,875,Tag0,unknown
1623577036082,0,-306,-6.723632812500001E-5,51,63,40,154944,94332,8882,21434,10397,13198,1377,875,Tag0,unknown
1623577036098,0,-305,-6.70166015625E-5,51,63,40,154944,94332,8882,21434,10397,13198,1377,875,Tag0,unknown
1623577036099,0,-280,-6.15234375E-5,51,63,40,154944,94332,8882,21434,10397,13198,1377,875,Tag0,unknown
1623577036115,0,-279,-6.13037109375E-5,51,63,40,154944,94332,8882,21434,10397,13198,1377,875,Tag0,unknown
1623577036116,0,-273,-5.998535156250001E-5,51,63,40,154944,94332,8882,21434,10397,13198,1377,875,Tag0,unknown
1623577036117,0,-261,-5.73486328125E-5,51,63,40,154944,94332,8882,21434,10397,13198,1377,875,Tag0,unknown
1623577036118,0,-311,-6.833496093750001E-5,51,63,40,154944,94332,8882,21434,10397,13198,1377,875,Tag0,unknown
1623577036119,0,-289,-6.35009765625E-5,51,63,40,154944,94332,8882,21434,10397,13198,1377,875,Tag0,unknown
1623577036133,0,-284,-6.240234375E-5,51,63,40,154944,94332,8882,21434,10397,13198,1377,875,Tag0,unknown
1623577036134,0,-329,-7.229003906250001E-5,51,63,40,154944,94332,8882,21434,10397,13198,1377,875,Tag0,unknown
1623577036135,0,-321,-7.053222656250001E-5,51,63,40,154944,94332,8882,21434,10397,13198,1377,875,Tag0,unknown
1623577036147,0,-326,-7.163085937500001E-5,51,63,40,154944,94332,8882,21434,10397,13198,1377,875,Tag0,unknown
1623577036148,0,-323,-7.09716796875E-5,51,63,40,154944,94332,8882,21434,10397,13198,1377,875,Tag0,unknown
1623577036168,0,-307,-6.74560546875E-5,51,63,40,154944,94332,8882,21434,10397,13198,1377,875,Tag0,unknown
1623577036169,0,21,4.614257812500001E-6,51,63,40,154944,94332,8882,21434,10397,13198,1377,875,Tag0,unknown
1623577036170,0,3,6.591796875E-7,51,63,40,154944,94332,8882,21434,10397,13198,1377,875,Tag0,unknown
1623577036182,0,64,1.40625E-5,51,63,46,154944,94332,8882,21434,10397,13198,1377,875,Tag0,unknown
1623577036183,0,75,1.64794921875E-5,51,63,46,154944,94332,8882,21434,10397,13198,1377,875,Tag0,unknown
1623577036196,0,71,1.56005859375E-5,51,63,46,154944,94332,8882,21434,10397,13198,1377,875,Tag0,unknown
1623577036197,0,50,1.0986328125E-5,51,63,46,154944,94332,8882,21434,10397,13198,1377,875,Tag0,unknown
1623577036215,0,54,1.1865234375000001E-5,51,63,46,154944,94332,8882,21434,10397,13198,1377,875,Tag0,unknown
1623577036216,0,21,4.614257812500001E-6,51,63,46,154944,94332,8882,21434,10397,13198,1377,875,Tag0,unknown
1623577036217,0,-273,-5.998535156250001E-5,51,63,46,154944,94332,8882,21434,10397,13198,1377,875,Tag0,unknown
1623577036231,0,-278,-6.108398437500001E-5,51,63,46,154944,94332,8882,21434,10397,13198,1377,875,Tag0,unknown
1623577036232,0,-283,-6.218261718750001E-5,51,63,46,154944,94332,8882,21434,10397,13198,1377,875,Tag0,unknown
1623577036233,0,-282,-6.1962890625E-5,51,63,46,154944,94332,8882,21434,10397,13198,1377,875,Tag0,unknown
1623577036248,0,-281,-6.17431640625E-5,51,63,46,154944,94332,8882,21434,10397,13198,1377,875,Tag0,unknown
1623577036249,0,24,5.2734375E-6,51,63,46,154944,94332,8882,21434,10397,13198,1377,875,Tag0,unknown
1623577036266,0,37,8.1298828125E-6,51,63,46,154944,94332,8882,21434,10397,13198,1377,875,Tag0,unknown
1623577036267,0,58,1.2744140625E-5,51,63,46,154944,94332,8882,21434,10397,13198,1377,875,Tag0,unknown
1623577036268,0,87,1.91162109375E-5,51,63,46,154944,94332,8882,21434,10397,13198,1377,875,Tag0,unknown
1623577036269,0,69,1.51611328125E-5,51,63,46,154944,94332,8882,21434,10397,13198,1377,875,Tag0,unknown
1623577036270,0,55,1.20849609375E-5,51,63,46,154944,94332,8882,21434,10397,13198,1377,875,Tag0,unknown
1623577036281,0,34,7.4707031250000005E-6,51,63,46,154944,94332,8882,21434,10397,13198,1377,875,Tag0,unknown
1623577036282,0,22,4.833984375E-6,51,63,46,154944,94332,8882,21434,10397,13198,1377,875,Tag0,unknown
1623577036283,0,32,7.03125E-6,51,63,46,154944,94332,8882,21434,10397,13198,1377,875,Tag0,unknown
1623577036299,0,12,2.63671875E-6,51,63,46,154944,94332,8882,21434,10397,13198,1377,875,Tag0,unknown
1623577036300,0,23,5.0537109375E-6,51,63,46,154944,94332,8882,21434,10397,13198,1377,875,Tag0,unknown
1623577036301,0,3,6.591796875E-7,51,63,46,154944,94332,8882,21434,10397,13198,1377,875,Tag0,unknown
1623577036315,0,-268,-5.8886718750000006E-5,51,63,46,154944,94332,8882,21434,10397,13198,1377,875,Tag0,unknown
1623577036316,0,-267,-5.86669921875E-5,51,63,46,154944,94332,8882,21434,10397,13198,1377,875,Tag0,unknown
1623577036317,0,-275,-6.04248046875E-5,51,63,46,154944,94332,8882,21434,10397,13198,1377,875,Tag0,unknown
1623577036331,0,-275,-6.04248046875E-5,51,63,46,154944,94332,8882,21434,10397,13198,1377,875,Tag0,unknown
1623577036332,0,-289,-6.35009765625E-5,51,63,46,154944,94332,8882,21434,10397,13198,1377,875,Tag0,unknown
1623577036333,0,-263,-5.7788085937500005E-5,51,63,46,154944,94332,8882,21434,10397,13198,1377,875,Tag0,unknown
1623577036352,0,-257,-5.64697265625E-5,51,63,46,154944,94332,8882,21434,10397,13198,1377,875,Tag0,unknown
1623577036353,0,10,2.197265625E-6,51,63,46,154944,94332,8882,21434,10397,13198,1377,875,Tag0,unknown
1623577036354,0,28,6.15234375E-6,51,63,46,154944,94332,8882,21434,10397,13198,1377,875,Tag0,unknown
1623577036355,0,58,1.2744140625E-5,51,63,46,154944,94332,8882,21434,10397,13198,1377,875,Tag0,unknown
1623577036356,0,60,1.318359375E-5,51,63,46,154944,94332,8882,21434,10397,13198,1377,875,Tag0,unknown
1623577036366,0,70,1.5380859375E-5,51,63,46,154944,94332,8882,21434,10397,13198,1377,875,Tag0,unknown
1623577036367,0,73,1.6040039062500002E-5,51,63,46,154944,94332,8882,21434,10397,13198,1377,875,Tag0,unknown
1623577036368,0,81,1.77978515625E-5,51,63,46,154944,94332,8882,21434,10397,13198,1377,875,Tag0,unknown
1623577036383,0,83,1.82373046875E-5,51,63,46,154944,94332,8882,21434,10397,13198,1377,875,Tag0,unknown
1623577036384,0,87,1.91162109375E-5,51,63,46,154944,94332,8882,21434,10397,13198,1377,875,Tag0,unknown
1623577036385,0,81,1.77978515625E-5,51,63,46,154944,94332,8882,21434,10397,13198,1377,875,Tag0,unknown
1623577036386,0,51,1.1206054687499999E-5,51,63,46,154944,94332,8882,21434,10397,13198,1377,875,Tag0,unknown
1623577036387,0,45,9.8876953125E-6,51,63,46,154944,94332,8882,21434,10397,13198,1377,875,Tag0,unknown
1623577036397,0,50,1.0986328125E-5,51,63,46,154944,94332,8882,21434,10397,13198,1377,875,Tag0,unknown
1623577036398,0,42,9.228515625000002E-6,51,63,46,154944,94332,8882,21434,10397,13198,1377,875,Tag0,unknown
1623577036417,0,-273,-5.998535156250001E-5,51,63,46,154944,94332,8882,21434,10397,13198,1377,875,Tag0,unknown
1623577036418,0,4,8.7890625E-7,51,63,46,154944,94332,8882,21434,10397,13198,1377,875,Tag0,unknown
1623577036419,0,37,8.1298828125E-6,51,63,46,154944,94332,8882,21434,10397,13198,1377,875,Tag0,unknown
1623577036432,0,64,1.40625E-5,51,63,46,154944,94332,8882,21434,10397,13198,1377,875,Tag0,unknown
1623577036433,0,-264,-5.80078125E-5,51,63,46,154944,94332,8882,21434,10397,13198,1377,875,Tag0,unknown
1623577036449,0,-285,-6.26220703125E-5,51,63,46,154944,94332,8882,21434,10397,13198,1377,875,Tag0,unknown
1623577036450,0,9,1.9775390625E-6,51,63,46,154944,94332,8882,21434,10397,13198,1377,875,Tag0,unknown
1623577036451,0,53,1.1645507812500002E-5,51,63,46,154944,94332,8882,21434,10397,13198,1377,875,Tag0,unknown
1623577036466,0,70,1.5380859375E-5,51,63,46,154944,94332,8882,21434,10397,13198,1377,875,Tag0,unknown
1623577036467,0,18,3.955078125E-6,51,63,46,154944,94332,8882,21434,10397,13198,1377,875,Tag0,unknown
1623577036483,0,41,9.008789062499999E-6,51,63,46,154944,94332,8882,21434,10397,13198,1377,875,Tag0,unknown
1623577036484,0,25,5.4931640625E-6,51,63,46,154944,94332,8882,21434,10397,13198,1377,875,Tag0,unknown
1623577036499,0,13,2.8564453125E-6,51,63,46,154944,94332,8882,21434,10397,13198,1377,875,Tag0,unknown
1623577036500,0,42,9.228515625000002E-6,51,63,46,154944,94332,8882,21434,10397,13198,1377,875,Tag0,unknown
1623577036501,0,49,1.07666015625E-5,51,63,46,154944,94332,8882,21434,10397,13198,1377,875,Tag0,unknown
1623577036502,0,49,1.07666015625E-5,51,63,46,154944,94332,8882,21434,10397,13198,1377,875,Tag0,unknown
1623577036517,0,-266,-5.8447265625E-5,51,63,46,154944,94332,8882,21434,10397,13198,1377,875,Tag0,unknown
1623577036518,0,48,1.0546875E-5,51,63,46,154944,94332,8882,21434,10397,13198,1377,875,Tag0,unknown
1623577036519,0,32,7.03125E-6,51,63,46,154944,94332,8882,21434,10397,13198,1377,875,Tag0,unknown
1623577036533,0,51,1.1206054687499999E-5,51,63,46,154944,94332,8882,21434,10397,13198,1377,875,Tag0,unknown
1623577036534,0,44,9.66796875E-6,51,63,46,154944,94332,8882,21434,10397,13198,1377,875,Tag0,unknown
1623577036535,0,-299,-6.56982421875E-5,51,63,46,154944,94332,8882,21434,10397,13198,1377,875,Tag0,unknown
1623577036549,0,32,7.03125E-6,51,63,46,154944,94332,8882,21434,10397,13198,1377,875,Tag0,unknown
1623577036550,0,-258,-5.6689453125000004E-5,51,63,46,154944,94332,8882,21434,10397,13198,1377,875,Tag0,unknown
1623577036551,0,-276,-6.064453125E-5,51,63,46,154944,94332,8882,21434,10397,13198,1377,875,Tag0,unknown
1623577036552,0,17,3.7353515625000003E-6,51,63,46,154944,94332,8882,21434,10397,13198,1377,875,Tag0,unknown
1623577036566,0,37,8.1298828125E-6,51,63,46,154944,94332,8882,21434,10397,13198,1377,875,Tag0,unknown
1623577036567,0,24,5.2734375E-6,51,63,46,154944,94332,8882,21434,10397,13198,1377,875,Tag0,unknown
1623577036568,0,55,1.20849609375E-5,51,63,46,154944,94332,8882,21434,10397,13198,1377,875,Tag0,unknown
1623577036584,0,56,1.23046875E-5,51,63,46,154944,94332,8882,21434,10397,13198,1377,875,Tag0,unknown
1623577036585,0,23,5.0537109375E-6,51,63,46,154944,94332,8882,21434,10397,13198,1377,875,Tag0,unknown
1623577036587,0,19,4.1748046875E-6,51,63,46,154944,94332,8882,21434,10397,13198,1377,875,Tag0,unknown
1623577036600,0,48,1.0546875E-5,51,63,46,154944,94332,8882,21434,10397,13198,1377,875,Tag0,unknown
1623577036601,0,21,4.614257812500001E-6,51,63,46,154944,94332,8882,21434,10397,13198,1377,875,Tag0,unknown
1623577036602,0,48,1.0546875E-5,51,63,46,154944,94332,8882,21434,10397,13198,1377,875,Tag0,unknown
1623577036617,0,51,1.1206054687499999E-5,51,63,46,154944,94332,8882,21434,10397,13198,1377,875,Tag0,unknown
1623577036618,0,55,1.20849609375E-5,51,63,46,154944,94332,8882,21434,10397,13198,1377,875,Tag0,unknown
1623577036633,0,-284,-6.240234375E-5,51,63,46,154944,94332,8882,21434,10397,13198,1377,875,Tag0,unknown
1623577036634,0,4,8.7890625E-7,51,63,46,154944,94332,8882,21434,10397,13198,1377,875,Tag0,unknown
1623577036649,0,1,2.197265625E-7,51,63,46,154944,94332,8882,21434,10397,13198,1377,875,Tag0,unknown
1623577036650,0,18,3.955078125E-6,51,63,46,154944,94332,8882,21434,10397,13198,1377,875,Tag0,unknown
1623577036651,0,13,2.8564453125E-6,51,63,46,154944,94332,8882,21434,10397,13198,1377,875,Tag0,unknown
1623577036666,0,58,1.2744140625E-5,51,63,46,154944,94332,8882,21434,10397,13198,1377,875,Tag0,unknown
1623577036667,0,56,1.23046875E-5,51,63,46,154944,94332,8882,21434,10397,13198,1377,875,Tag0,unknown
1623577036682,0,21,4.614257812500001E-6,51,63,46,154944,94332,8882,21434,10397,13198,1377,875,Tag0,unknown
1623577036683,0,29,6.3720703125E-6,51,63,46,154944,94332,8882,21434,10397,13198,1377,875,Tag0,unknown
1623577036699,0,7,1.5380859375E-6,51,63,46,154944,94332,8882,21434,10397,13198,1377,875,Tag0,unknown
1623577036700,0,43,9.448242187500001E-6,51,63,46,154944,94332,8882,21434,10397,13198,1377,875,Tag0,unknown
1623577036701,0,2,4.39453125E-7,51,63,46,154944,94332,8882,21434,10397,13198,1377,875,Tag0,unknown
1623577036702,0,10,2.197265625E-6,51,63,46,154944,94332,8882,21434,10397,13198,1377,875,Tag0,unknown
1623577036717,0,11,2.4169921875E-6,51,63,46,154944,94332,8882,21434,10397,13198,1377,875,Tag0,unknown
1623577036718,0,56,1.23046875E-5,51,63,46,154944,94332,8882,21434,10397,13198,1377,875,Tag0,unknown
1623577036734,0,7,1.5380859375E-6,51,63,46,154944,94332,8882,21434,10397,13198,1377,875,Tag0,unknown
1623577036735,0,89,1.95556640625E-5,51,63,46,154944,94332,8882,21434,10397,13198,1377,875,Tag0,unknown
1623577036736,0,89,1.95556640625E-5,51,63,46,154944,94332,8882,21434,10397,13198,1377,875,Tag0,unknown
1623577036750,0,90,1.9775390625E-5,51,63,46,154944,94332,8882,21434,10397,13198,1377,875,Tag0,unknown
1623577036751,0,51,1.1206054687499999E-5,51,63,46,154944,94332,8882,21434,10397,13198,1377,875,Tag0,unknown
1623577036768,0,22,4.833984375E-6,41,61,46,412985,75822,22735,31211,32046,7351,4656,2738,Tag0,unknown
1623577036769,0,3,6.591796875E-7,41,61,46,412985,75822,22735,31211,32046,7351,4656,2738,Tag0,unknown
1623577036770,0,-291,-6.39404296875E-5,41,61,46,412985,75822,22735,31211,32046,7351,4656,2738,Tag0,unknown
1623577036784,0,-285,-6.26220703125E-5,41,61,46,412985,75822,22735,31211,32046,7351,4656,2738,Tag0,unknown
1623577036785,0,1,2.197265625E-7,41,61,46,412985,75822,22735,31211,32046,7351,4656,2738,Tag0,unknown
1623577036786,0,83,1.82373046875E-5,41,61,46,412985,75822,22735,31211,32046,7351,4656,2738,Tag0,unknown
1623577036799,0,17,3.7353515625000003E-6,41,61,46,412985,75822,22735,31211,32046,7351,4656,2738,Tag0,unknown
1623577036800,0,-259,-5.69091796875E-5,41,61,46,412985,75822,22735,31211,32046,7351,4656,2738,Tag0,unknown
1623577036801,0,-273,-5.998535156250001E-5,41,61,46,412985,75822,22735,31211,32046,7351,4656,2738,Tag0,unknown
1623577036802,0,24,5.2734375E-6,41,61,46,412985,75822,22735,31211,32046,7351,4656,2738,Tag0,unknown
1623577036818,0,68,1.4941406250000001E-5,41,61,46,412985,75822,22735,31211,32046,7351,4656,2738,Tag0,unknown
1623577036819,0,33,7.2509765625E-6,41,61,46,412985,75822,22735,31211,32046,7351,4656,2738,Tag0,unknown
1623577036834,0,20,4.39453125E-6,41,61,46,412985,75822,22735,31211,32046,7351,4656,2738,Tag0,unknown
1623577036835,0,36,7.91015625E-6,41,61,46,412985,75822,22735,31211,32046,7351,4656,2738,Tag0,unknown
1623577036850,0,-264,-5.80078125E-5,41,61,46,412985,75822,22735,31211,32046,7351,4656,2738,Tag0,unknown
1623577036851,0,-265,-5.82275390625E-5,41,61,46,412985,75822,22735,31211,32046,7351,4656,2738,Tag0,unknown
1623577036852,0,-259,-5.69091796875E-5,41,61,46,412985,75822,22735,31211,32046,7351,4656,2738,Tag0,unknown
1623577036853,0,-268,-5.8886718750000006E-5,41,61,46,412985,75822,22735,31211,32046,7351,4656,2738,Tag0,unknown
1623577036868,0,-258,-5.6689453125000004E-5,41,61,46,412985,75822,22735,31211,32046,7351,4656,2738,Tag0,unknown
1623577036884,0,-281,-6.17431640625E-5,41,61,46,412985,75822,22735,31211,32046,7351,4656,2738,Tag0,unknown
1623577036885,0,-274,-6.0205078124999997E-5,41,61,46,412985,75822,22735,31211,32046,7351,4656,2738,Tag0,unknown
1623577036886,0,-347,-7.62451171875E-5,41,61,46,412985,75822,22735,31211,32046,7351,4656,2738,Tag0,unknown
1623577036900,0,-326,-7.163085937500001E-5,41,61,46,412985,75822,22735,31211,32046,7351,4656,2738,Tag0,unknown
1623577036901,0,-266,-5.8447265625E-5,41,61,46,412985,75822,22735,31211,32046,7351,4656,2738,Tag0,unknown
1623577036917,0,-273,-5.998535156250001E-5,41,61,46,412985,75822,22735,31211,32046,7351,4656,2738,Tag0,unknown
1623577036918,0,20,4.39453125E-6,41,61,46,412985,75822,22735,31211,32046,7351,4656,2738,Tag0,unknown
1623577036934,0,80,1.7578125E-5,41,61,46,412985,75822,22735,31211,32046,7351,4656,2738,Tag0,unknown
1623577036935,0,41,9.008789062499999E-6,41,61,46,412985,75822,22735,31211,32046,7351,4656,2738,Tag0,unknown
1623577036952,0,56,1.23046875E-5,41,61,46,412985,75822,22735,31211,32046,7351,4656,2738,Tag0,unknown
1623577036968,0,90,1.9775390625E-5,41,61,46,412985,75822,22735,31211,32046,7351,4656,2738,Tag0,unknown
1623577036969,0,66,1.4501953125E-5,41,61,46,412985,75822,22735,31211,32046,7351,4656,2738,Tag0,unknown
1623577036970,0,-257,-5.64697265625E-5,41,61,46,412985,75822,22735,31211,32046,7351,4656,2738,Tag0,unknown
1623577036971,0,-284,-6.240234375E-5,41,61,46,412985,75822,22735,31211,32046,7351,4656,2738,Tag0,unknown
1623577036972,0,-342,-7.5146484375E-5,41,61,46,412985,75822,22735,31211,32046,7351,4656,2738,Tag0,unknown
1623577036983,0,-342,-7.5146484375E-5,41,61,46,412985,75822,22735,31211,32046,7351,4656,2738,Tag0,unknown
1623577036984,0,18,3.955078125E-6,41,61,46,412985,75822,22735,31211,32046,7351,4656,2738,Tag0,unknown
1623577037002,0,72,1.58203125E-5,41,61,46,412985,75822,22735,31211,32046,7351,4656,2738,Tag0,unknown
1623577037016,0,10,2.197265625E-6,41,61,46,412985,75822,22735,31211,32046,7351,4656,2738,Tag0,unknown
1623577037017,0,-263,-5.7788085937500005E-5,41,61,46,412985,75822,22735,31211,32046,7351,4656,2738,Tag0,unknown
1623577037034,0,29,6.3720703125E-6,41,61,46,412985,75822,22735,31211,32046,7351,4656,2738,Tag0,unknown
1623577037051,0,-268,-5.8886718750000006E-5,41,61,46,412985,75822,22735,31211,32046,7351,4656,2738,Tag0,unknown
1623577037052,0,13,2.8564453125E-6,41,61,46,412985,75822,22735,31211,32046,7351,4656,2738,Tag0,unknown
1623577037053,0,-316,-6.943359375000001E-5,41,61,46,412985,75822,22735,31211,32046,7351,4656,2738,Tag0,unknown
1623577037070,0,-331,-7.272949218750001E-5,41,61,46,412985,75822,22735,31211,32046,7351,4656,2738,Tag0,unknown
1623577037071,0,-334,-7.338867187500001E-5,41,61,46,412985,75822,22735,31211,32046,7351,4656,2738,Tag0,unknown
1623577037072,0,-312,-6.85546875E-5,41,61,46,412985,75822,22735,31211,32046,7351,4656,2738,Tag0,unknown
1623577037073,0,-282,-6.1962890625E-5,41,61,46,412985,75822,22735,31211,32046,7351,4656,2738,Tag0,unknown
1623577037083,0,43,9.448242187500001E-6,41,61,46,412985,75822,22735,31211,32046,7351,4656,2738,Tag0,unknown
1623577037084,0,100,2.197265625E-5,41,61,46,412985,75822,22735,31211,32046,7351,4656,2738,Tag0,unknown
1623577037085,0,-274,-6.0205078124999997E-5,41,61,46,412985,75822,22735,31211,32046,7351,4656,2738,Tag0,unknown
1623577037101,0,73,1.6040039062500002E-5,41,61,46,412985,75822,22735,31211,32046,7351,4656,2738,Tag0,unknown
1623577037102,0,85,1.86767578125E-5,41,61,46,412985,75822,22735,31211,32046,7351,4656,2738,Tag0,unknown
1623577037103,0,76,1.669921875E-5,41,61,46,412985,75822,22735,31211,32046,7351,4656,2738,Tag0,unknown
1623577037117,0,84,1.8457031250000004E-5,41,61,46,412985,75822,22735,31211,32046,7351,4656,2738,Tag0,unknown
1623577037118,0,68,1.4941406250000001E-5,41,61,46,412985,75822,22735,31211,32046,7351,4656,2738,Tag0,unknown
1623577037119,0,64,1.40625E-5,41,61,46,412985,75822,22735,31211,32046,7351,4656,2738,Tag0,unknown
1623577037120,0,96,2.109375E-5,41,61,46,412985,75822,22735,31211,32046,7351,4656,2738,Tag0,unknown
1623577037135,0,116,2.548828125E-5,41,61,46,412985,75822,22735,31211,32046,7351,4656,2738,Tag0,unknown
1623577037136,0,-118,-2.5927734375E-5,41,61,46,412985,75822,22735,31211,32046,7351,4656,2738,Tag0,unknown
1623577037137,0,-95,-2.08740234375E-5,41,61,46,412985,75822,22735,31211,32046,7351,4656,2738,Tag0,unknown
1623577037150,0,101,2.2192382812500002E-5,41,61,46,412985,75822,22735,31211,32046,7351,4656,2738,Tag0,unknown
1623577037151,0,80,1.7578125E-5,41,61,46,412985,75822,22735,31211,32046,7351,4656,2738,Tag0,unknown
1623577037152,0,107,2.35107421875E-5,41,61,46,412985,75822,22735,31211,32046,7351,4656,2738,Tag0,unknown
1623577037172,0,114,2.5048828125000003E-5,41,61,46,412985,75822,22735,31211,32046,7351,4656,2738,Tag0,unknown
1623577037173,0,105,2.30712890625E-5,41,61,46,412985,75822,22735,31211,32046,7351,4656,2738,Tag0,unknown
1623577037174,0,88,1.93359375E-5,41,61,46,412985,75822,22735,31211,32046,7351,4656,2738,Tag0,unknown
1623577037175,0,60,1.318359375E-5,41,61,46,412985,75822,22735,31211,32046,7351,4656,2738,Tag0,unknown
1623577037176,0,80,1.7578125E-5,41,61,46,412985,75822,22735,31211,32046,7351,4656,2738,Tag0,unknown
1623577037177,0,83,1.82373046875E-5,41,61,46,412985,75822,22735,31211,32046,7351,4656,2738,Tag0,unknown
1623577037184,0,77,1.69189453125E-5,41,61,46,412985,75822,22735,31211,32046,7351,4656,2738,Tag0,unknown
1623577037185,0,86,1.8896484375000003E-5,41,61,46,412985,75822,22735,31211,32046,7351,4656,2738,Tag0,unknown
1623577037186,0,58,1.2744140625E-5,41,61,46,412985,75822,22735,31211,32046,7351,4656,2738,Tag0,unknown
1623577037199,0,80,1.7578125E-5,41,61,46,412985,75822,22735,31211,32046,7351,4656,2738,Tag0,unknown
1623577037200,0,-125,-2.74658203125E-5,41,61,46,412985,75822,22735,31211,32046,7351,4656,2738,Tag0,unknown
1623577037201,0,-112,-2.4609375E-5,41,61,46,412985,75822,22735,31211,32046,7351,4656,2738,Tag0,unknown
1623577037217,0,-128,-2.8125E-5,41,61,46,412985,75822,22735,31211,32046,7351,4656,2738,Tag0,unknown
1623577037218,0,99,2.1752929687500003E-5,41,61,46,412985,75822,22735,31211,32046,7351,4656,2738,Tag0,unknown
1623577037235,0,87,1.91162109375E-5,41,61,46,412985,75822,22735,31211,32046,7351,4656,2738,Tag0,unknown
1623577037236,0,101,2.2192382812500002E-5,41,61,46,412985,75822,22735,31211,32046,7351,4656,2738,Tag0,unknown
1623577037237,0,115,2.52685546875E-5,41,61,46,412985,75822,22735,31211,32046,7351,4656,2738,Tag0,unknown
1623577037253,0,83,1.82373046875E-5,41,61,46,412985,75822,22735,31211,32046,7351,4656,2738,Tag0,unknown
1623577037254,0,123,2.70263671875E-5,41,61,46,412985,75822,22735,31211,32046,7351,4656,2738,Tag0,unknown
1623577037255,0,104,2.28515625E-5,41,61,46,412985,75822,22735,31211,32046,7351,4656,2738,Tag0,unknown
1623577037267,0,-121,-2.6586914062500003E-5,41,61,46,412985,75822,22735,31211,32046,7351,4656,2738,Tag0,unknown
1623577037268,0,117,2.5708007812499998E-5,41,61,46,412985,75822,22735,31211,32046,7351,4656,2738,Tag0,unknown
1623577037283,0,-119,-2.6147460937500004E-5,41,61,46,412985,75822,22735,31211,32046,7351,4656,2738,Tag0,unknown
1623577037284,0,-127,-2.79052734375E-5,41,61,46,412985,75822,22735,31211,32046,7351,4656,2738,Tag0,unknown
1623577037285,0,88,1.93359375E-5,41,61,46,412985,75822,22735,31211,32046,7351,4656,2738,Tag0,unknown
1623577037286,0,55,1.20849609375E-5,41,61,46,412985,75822,22735,31211,32046,7351,4656,2738,Tag0,unknown
1623577037302,0,33,7.2509765625E-6,41,61,46,412985,75822,22735,31211,32046,7351,4656,2738,Tag0,unknown
1623577037303,0,12,2.63671875E-6,41,61,46,412985,75822,22735,31211,32046,7351,4656,2738,Tag0,unknown
1623577037304,0,27,5.9326171875000005E-6,41,61,46,412985,75822,22735,31211,32046,7351,4656,2738,Tag0,unknown
1623577037316,0,-279,-6.13037109375E-5,41,61,46,412985,75822,22735,31211,32046,7351,4656,2738,Tag0,unknown
1623577037317,0,-280,-6.15234375E-5,41,61,46,412985,75822,22735,31211,32046,7351,4656,2738,Tag0,unknown
1623577037334,0,3,6.591796875E-7,41,61,46,412985,75822,22735,31211,32046,7351,4656,2738,Tag0,unknown
1623577037335,0,3,6.591796875E-7,41,61,46,412985,75822,22735,31211,32046,7351,4656,2738,Tag0,unknown
1623577037336,0,-267,-5.86669921875E-5,41,61,46,412985,75822,22735,31211,32046,7351,4656,2738,Tag0,unknown
1623577037350,0,61,1.34033203125E-5,41,61,46,412985,75822,22735,31211,32046,7351,4656,2738,Tag0,unknown
1623577037351,0,54,1.1865234375000001E-5,41,61,46,412985,75822,22735,31211,32046,7351,4656,2738,Tag0,unknown
1623577037352,0,17,3.7353515625000003E-6,41,61,46,412985,75822,22735,31211,32046,7351,4656,2738,Tag0,unknown
1623577037366,0,32,7.03125E-6,41,61,46,412985,75822,22735,31211,32046,7351,4656,2738,Tag0,unknown
1623577037367,0,25,5.4931640625E-6,41,61,46,412985,75822,22735,31211,32046,7351,4656,2738,Tag0,unknown
1623577037383,0,58,1.2744140625E-5,41,61,46,412985,75822,22735,31211,32046,7351,4656,2738,Tag0,unknown
1623577037384,0,-285,-6.26220703125E-5,41,61,46,412985,75822,22735,31211,32046,7351,4656,2738,Tag0,unknown
1623577037400,0,52,1.142578125E-5,41,61,46,412985,75822,22735,31211,32046,7351,4656,2738,Tag0,unknown
1623577037401,0,42,9.228515625000002E-6,41,61,46,412985,75822,22735,31211,32046,7351,4656,2738,Tag0,unknown
1623577037402,0,57,1.2524414062500001E-5,41,61,46,412985,75822,22735,31211,32046,7351,4656,2738,Tag0,unknown
1623577037418,0,56,1.23046875E-5,41,61,46,412985,75822,22735,31211,32046,7351,4656,2738,Tag0,unknown
1623577037419,0,42,9.228515625000002E-6,41,61,46,412985,75822,22735,31211,32046,7351,4656,2738,Tag0,unknown
1623577037420,0,43,9.448242187500001E-6,41,61,46,412985,75822,22735,31211,32046,7351,4656,2738,Tag0,unknown
1623577037421,0,17,3.7353515625000003E-6,41,61,46,412985,75822,22735,31211,32046,7351,4656,2738,Tag0,unknown
1623577037434,0,9,1.9775390625E-6,41,61,46,412985,75822,22735,31211,32046,7351,4656,2738,Tag0,unknown
1623577037435,0,0,0.0,41,61,46,412985,75822,22735,31211,32046,7351,4656,2738,Tag0,unknown
1623577037451,0,-265,-5.82275390625E-5,41,61,46,412985,75822,22735,31211,32046,7351,4656,2738,Tag0,unknown
1623577037452,0,-261,-5.73486328125E-5,41,61,46,412985,75822,22735,31211,32046,7351,4656,2738,Tag0,unknown
1623577037453,0,4,8.7890625E-7,41,61,46,412985,75822,22735,31211,32046,7351,4656,2738,Tag0,unknown
1623577037468,0,56,1.23046875E-5,41,61,46,412985,75822,22735,31211,32046,7351,4656,2738,Tag0,unknown
1623577037469,0,41,9.008789062499999E-6,41,61,46,412985,75822,22735,31211,32046,7351,4656,2738,Tag0,unknown
1623577037470,0,60,1.318359375E-5,41,61,46,412985,75822,22735,31211,32046,7351,4656,2738,Tag0,unknown
1623577037471,0,48,1.0546875E-5,41,61,46,412985,75822,22735,31211,32046,7351,4656,2738,Tag0,unknown
1623577037486,0,72,1.58203125E-5,41,61,46,412985,75822,22735,31211,32046,7351,4656,2738,Tag0,unknown
1623577037487,0,82,1.8017578124999998E-5,41,61,46,412985,75822,22735,31211,32046,7351,4656,2738,Tag0,unknown
1623577037488,0,44,9.66796875E-6,41,61,46,412985,75822,22735,31211,32046,7351,4656,2738,Tag0,unknown
1623577037503,0,40,8.7890625E-6,41,61,46,412985,75822,22735,31211,32046,7351,4656,2738,Tag0,unknown
1623577037504,0,40,8.7890625E-6,41,61,46,412985,75822,22735,31211,32046,7351,4656,2738,Tag0,unknown
1623577037505,0,19,4.1748046875E-6,41,61,46,412985,75822,22735,31211,32046,7351,4656,2738,Tag0,unknown
1623577037518,0,26,5.712890625E-6,41,61,46,412985,75822,22735,31211,32046,7351,4656,2738,Tag0,unknown
1623577037519,0,33,7.2509765625E-6,41,61,46,412985,75822,22735,31211,32046,7351,4656,2738,Tag0,unknown
1623577037536,0,32,7.03125E-6,41,61,46,412985,75822,22735,31211,32046,7351,4656,2738,Tag0,unknown
1623577037537,0,32,7.03125E-6,41,61,46,412985,75822,22735,31211,32046,7351,4656,2738,Tag0,unknown
1623577037550,0,76,1.669921875E-5,41,61,46,412985,75822,22735,31211,32046,7351,4656,2738,Tag0,unknown
1623577037551,0,45,9.8876953125E-6,41,61,46,412985,75822,22735,31211,32046,7351,4656,2738,Tag0,unknown
1623577037568,0,22,4.833984375E-6,41,61,46,412985,75822,22735,31211,32046,7351,4656,2738,Tag0,unknown
1623577037569,0,19,4.1748046875E-6,41,61,46,412985,75822,22735,31211,32046,7351,4656,2738,Tag0,unknown
1623577037570,0,36,7.91015625E-6,41,61,46,412985,75822,22735,31211,32046,7351,4656,2738,Tag0,unknown
1623577037571,0,59,1.29638671875E-5,41,61,46,412985,75822,22735,31211,32046,7351,4656,2738,Tag0,unknown
1623577037572,0,-267,-5.86669921875E-5,41,61,46,412985,75822,22735,31211,32046,7351,4656,2738,Tag0,unknown
1623577037587,0,-273,-5.998535156250001E-5,41,61,46,412985,75822,22735,31211,32046,7351,4656,2738,Tag0,unknown
1623577037588,0,-278,-6.108398437500001E-5,41,61,46,412985,75822,22735,31211,32046,7351,4656,2738,Tag0,unknown
1623577037589,0,8,1.7578125E-6,41,61,46,412985,75822,22735,31211,32046,7351,4656,2738,Tag0,unknown
1623577037603,0,26,5.712890625E-6,41,61,46,412985,75822,22735,31211,32046,7351,4656,2738,Tag0,unknown
1623577037617,0,16,3.515625E-6,41,61,46,412985,75822,22735,31211,32046,7351,4656,2738,Tag0,unknown
1623577037634,0,32,7.03125E-6,41,61,46,412985,75822,22735,31211,32046,7351,4656,2738,Tag0,unknown
1623577037635,0,20,4.39453125E-6,41,61,46,412985,75822,22735,31211,32046,7351,4656,2738,Tag0,unknown
1623577037636,0,20,4.39453125E-6,41,61,46,412985,75822,22735,31211,32046,7351,4656,2738,Tag0,unknown
1623577037637,0,10,2.197265625E-6,41,61,46,412985,75822,22735,31211,32046,7351,4656,2738,Tag0,unknown
1623577037638,0,4,8.7890625E-7,41,61,46,412985,75822,22735,31211,32046,7351,4656,2738,Tag0,unknown
1623577037651,0,5,1.0986328125E-6,41,61,46,412985,75822,22735,31211,32046,7351,4656,2738,Tag0,unknown
1623577037652,0,51,1.1206054687499999E-5,41,61,46,412985,75822,22735,31211,32046,7351,4656,2738,Tag0,unknown
1623577037668,0,32,7.03125E-6,41,61,46,412985,75822,22735,31211,32046,7351,4656,2738,Tag0,unknown
1623577037669,0,75,1.64794921875E-5,41,61,46,412985,75822,22735,31211,32046,7351,4656,2738,Tag0,unknown
1623577037685,0,21,4.614257812500001E-6,41,61,46,412985,75822,22735,31211,32046,7351,4656,2738,Tag0,unknown
1623577037686,0,17,3.7353515625000003E-6,41,61,46,412985,75822,22735,31211,32046,7351,4656,2738,Tag0,unknown
1623577037687,0,-289,-6.35009765625E-5,41,61,46,412985,75822,22735,31211,32046,7351,4656,2738,Tag0,unknown
1623577037703,0,-280,-6.15234375E-5,41,61,46,412985,75822,22735,31211,32046,7351,4656,2738,Tag0,unknown
1623577037704,0,-262,-5.7568359375E-5,41,61,46,412985,75822,22735,31211,32046,7351,4656,2738,Tag0,unknown
1623577037705,0,-312,-6.85546875E-5,41,61,46,412985,75822,22735,31211,32046,7351,4656,2738,Tag0,unknown
1623577037719,0,-323,-7.09716796875E-5,41,61,46,412985,75822,22735,31211,32046,7351,4656,2738,Tag0,unknown
1623577037720,0,-296,-6.50390625E-5,41,61,46,412985,75822,22735,31211,32046,7351,4656,2738,Tag0,unknown
1623577037721,0,-295,-6.48193359375E-5,41,61,46,412985,75822,22735,31211,32046,7351,4656,2738,Tag0,unknown
1623577037735,0,-263,-5.7788085937500005E-5,41,61,46,412985,75822,22735,31211,32046,7351,4656,2738,Tag0,unknown
1623577037736,0,26,5.712890625E-6,41,61,46,412985,75822,22735,31211,32046,7351,4656,2738,Tag0,unknown
1623577037753,0,36,7.91015625E-6,41,61,46,412985,75822,22735,31211,32046,7351,4656,2738,Tag0,unknown
1623577037754,0,80,1.7578125E-5,41,61,46,412985,75822,22735,31211,32046,7351,4656,2738,Tag0,unknown
1623577037756,0,59,1.29638671875E-5,40,61,46,44770,29562,30634,24111,16774140,3218,7481,3222,Tag0,unknown
1623577037770,0,64,1.40625E-5,40,61,46,44770,29562,30634,24111,16774140,3218,7481,3222,Tag0,unknown
1623577037771,0,72,1.58203125E-5,40,61,46,44770,29562,30634,24111,16774140,3218,7481,3222,Tag0,unknown
1623577037772,0,25,5.4931640625E-6,40,61,46,44770,29562,30634,24111,16774140,3218,7481,3222,Tag0,unknown
1623577037786,0,24,5.2734375E-6,40,61,46,44770,29562,30634,24111,16774140,3218,7481,3222,Tag0,unknown
1623577037787,0,35,7.6904296875E-6,40,61,46,44770,29562,30634,24111,16774140,3218,7481,3222,Tag0,unknown
1623577037788,0,20,4.39453125E-6,40,61,46,44770,29562,30634,24111,16774140,3218,7481,3222,Tag0,unknown
1623577037801,0,20,4.39453125E-6,40,61,46,44770,29562,30634,24111,16774140,3218,7481,3222,Tag0,unknown
1623577037802,0,42,9.228515625000002E-6,40,61,46,44770,29562,30634,24111,16774140,3218,7481,3222,Tag0,unknown
1623577037820,0,29,6.3720703125E-6,40,61,46,44770,29562,30634,24111,16774140,3218,7481,3222,Tag0,unknown
1623577037821,0,57,1.2524414062500001E-5,40,61,46,44770,29562,30634,24111,16774140,3218,7481,3222,Tag0,unknown
1623577037822,0,-313,-6.87744140625E-5,40,61,46,44770,29562,30634,24111,16774140,3218,7481,3222,Tag0,unknown
1623577037836,0,25,5.4931640625E-6,40,61,46,44770,29562,30634,24111,16774140,3218,7481,3222,Tag0,unknown
1623577037837,0,5,1.0986328125E-6,40,61,46,44770,29562,30634,24111,16774140,3218,7481,3222,Tag0,unknown
1623577037854,0,85,1.86767578125E-5,40,61,46,44770,29562,30634,24111,16774140,3218,7481,3222,Tag0,unknown
1623577037855,0,27,5.9326171875000005E-6,40,61,46,44770,29562,30634,24111,16774140,3218,7481,3222,Tag0,unknown
1623577037856,0,60,1.318359375E-5,40,61,46,44770,29562,30634,24111,16774140,3218,7481,3222,Tag0,unknown
1623577037869,0,66,1.4501953125E-5,40,61,46,44770,29562,30634,24111,16774140,3218,7481,3222,Tag0,unknown
1623577037870,0,56,1.23046875E-5,40,61,46,44770,29562,30634,24111,16774140,3218,7481,3222,Tag0,unknown
1623577037871,0,75,1.64794921875E-5,40,61,46,44770,29562,30634,24111,16774140,3218,7481,3222,Tag0,unknown
1623577037872,0,76,1.669921875E-5,40,61,46,44770,29562,30634,24111,16774140,3218,7481,3222,Tag0,unknown
1623577037887,0,58,1.2744140625E-5,40,61,46,44770,29562,30634,24111,16774140,3218,7481,3222,Tag0,unknown
1623577037888,0,54,1.1865234375000001E-5,40,61,46,44770,29562,30634,24111,16774140,3218,7481,3222,Tag0,unknown
1623577037889,0,1,2.197265625E-7,40,61,46,44770,29562,30634,24111,16774140,3218,7481,3222,Tag0,unknown
1623577037901,0,-258,-5.6689453125000004E-5,40,61,46,44770,29562,30634,24111,16774140,3218,7481,3222,Tag0,unknown
1623577037902,0,-258,-5.6689453125000004E-5,40,61,46,44770,29562,30634,24111,16774140,3218,7481,3222,Tag0,unknown
1623577037919,0,-259,-5.69091796875E-5,40,61,46,44770,29562,30634,24111,16774140,3218,7481,3222,Tag0,unknown
1623577037920,0,-279,-6.13037109375E-5,40,61,46,44770,29562,30634,24111,16774140,3218,7481,3222,Tag0,unknown
1623577037921,0,19,4.1748046875E-6,40,61,46,44770,29562,30634,24111,16774140,3218,7481,3222,Tag0,unknown
1623577037935,0,42,9.228515625000002E-6,40,61,46,44770,29562,30634,24111,16774140,3218,7481,3222,Tag0,unknown
1623577037936,0,39,8.5693359375E-6,40,61,46,44770,29562,30634,24111,16774140,3218,7481,3222,Tag0,unknown
1623577037937,0,38,8.349609375E-6,40,61,46,44770,29562,30634,24111,16774140,3218,7481,3222,Tag0,unknown
1623577037953,0,35,7.6904296875E-6,40,61,46,44770,29562,30634,24111,16774140,3218,7481,3222,Tag0,unknown
1623577037954,0,25,5.4931640625E-6,40,61,46,44770,29562,30634,24111,16774140,3218,7481,3222,Tag0,unknown
1623577037955,0,6,1.318359375E-6,40,61,46,44770,29562,30634,24111,16774140,3218,7481,3222,Tag0,unknown
1623577037969,0,27,5.9326171875000005E-6,40,61,46,44770,29562,30634,24111,16774140,3218,7481,3222,Tag0,unknown
1623577037970,0,26,5.712890625E-6,40,61,46,44770,29562,30634,24111,16774140,3218,7481,3222,Tag0,unknown
1623577037971,0,12,2.63671875E-6,40,61,46,44770,29562,30634,24111,16774140,3218,7481,3222,Tag0,unknown
1623577037972,0,29,6.3720703125E-6,40,61,46,44770,29562,30634,24111,16774140,3218,7481,3222,Tag0,unknown
1623577037986,0,41,9.008789062499999E-6,40,61,46,44770,29562,30634,24111,16774140,3218,7481,3222,Tag0,unknown
1623577037987,0,11,2.4169921875E-6,40,61,46,44770,29562,30634,24111,16774140,3218,7481,3222,Tag0,unknown
1623577038003,0,20,4.39453125E-6,40,61,46,44770,29562,30634,24111,16774140,3218,7481,3222,Tag0,unknown
1623577038004,0,60,1.318359375E-5,40,61,46,44770,29562,30634,24111,16774140,3218,7481,3222,Tag0,unknown
1623577038019,0,12,2.63671875E-6,40,61,46,44770,29562,30634,24111,16774140,3218,7481,3222,Tag0,unknown
1623577038020,0,18,3.955078125E-6,40,61,46,44770,29562,30634,24111,16774140,3218,7481,3222,Tag0,unknown
1623577038021,0,-265,-5.82275390625E-5,40,61,46,44770,29562,30634,24111,16774140,3218,7481,3222,Tag0,unknown
1623577038036,0,-267,-5.86669921875E-5,40,61,46,44770,29562,30634,24111,16774140,3218,7481,3222,Tag0,unknown
1623577038037,0,-300,-6.591796875E-5,40,61,46,44770,29562,30634,24111,16774140,3218,7481,3222,Tag0,unknown
1623577038038,0,-305,-6.70166015625E-5,40,61,46,44770,29562,30634,24111,16774140,3218,7481,3222,Tag0,unknown
1623577038052,0,-296,-6.50390625E-5,40,61,46,44770,29562,30634,24111,16774140,3218,7481,3222,Tag0,unknown
1623577038053,0,-294,-6.4599609375E-5,40,61,46,44770,29562,30634,24111,16774140,3218,7481,3222,Tag0,unknown
1623577038054,0,40,8.7890625E-6,40,61,46,44770,29562,30634,24111,16774140,3218,7481,3222,Tag0,unknown
1623577038070,0,35,7.6904296875E-6,40,61,46,44770,29562,30634,24111,16774140,3218,7481,3222,Tag0,unknown
1623577038071,0,33,7.2509765625E-6,40,61,46,44770,29562,30634,24111,16774140,3218,7481,3222,Tag0,unknown
1623577038072,0,80,1.7578125E-5,40,61,46,44770,29562,30634,24111,16774140,3218,7481,3222,Tag0,unknown
1623577038086,0,59,1.29638671875E-5,40,61,46,44770,29562,30634,24111,16774140,3218,7481,3222,Tag0,unknown
1623577038087,0,38,8.349609375E-6,40,61,46,44770,29562,30634,24111,16774140,3218,7481,3222,Tag0,unknown
1623577038088,0,2,4.39453125E-7,40,61,46,44770,29562,30634,24111,16774140,3218,7481,3222,Tag0,unknown
1623577038103,0,3,6.591796875E-7,40,61,46,44770,29562,30634,24111,16774140,3218,7481,3222,Tag0,unknown
1623577038104,0,8,1.7578125E-6,40,61,46,44770,29562,30634,24111,16774140,3218,7481,3222,Tag0,unknown
1623577038105,0,-274,-6.0205078124999997E-5,40,61,46,44770,29562,30634,24111,16774140,3218,7481,3222,Tag0,unknown
1623577038119,0,-291,-6.39404296875E-5,40,61,46,44770,29562,30634,24111,16774140,3218,7481,3222,Tag0,unknown
1623577038120,0,-306,-6.723632812500001E-5,40,61,46,44770,29562,30634,24111,16774140,3218,7481,3222,Tag0,unknown
1623577038136,0,-295,-6.48193359375E-5,40,61,46,44770,29562,30634,24111,16774140,3218,7481,3222,Tag0,unknown
1623577038137,0,-312,-6.85546875E-5,40,61,46,44770,29562,30634,24111,16774140,3218,7481,3222,Tag0,unknown
1623577038154,0,-291,-6.39404296875E-5,40,61,46,44770,29562,30634,24111,16774140,3218,7481,3222,Tag0,unknown
1623577038170,0,-280,-6.15234375E-5,40,61,46,44770,29562,30634,24111,16774140,3218,7481,3222,Tag0,unknown
1623577038171,0,-274,-6.0205078124999997E-5,40,61,46,44770,29562,30634,24111,16774140,3218,7481,3222,Tag0,unknown
1623577038172,0,-313,-6.87744140625E-5,40,61,46,44770,29562,30634,24111,16774140,3218,7481,3222,Tag0,unknown
1623577038187,0,-324,-7.119140625E-5,40,61,46,44770,29562,30634,24111,16774140,3218,7481,3222,Tag0,unknown
1623577038188,0,-301,-6.613769531250001E-5,40,61,46,44770,29562,30634,24111,16774140,3218,7481,3222,Tag0,unknown
1623577038203,0,-273,-5.998535156250001E-5,40,61,46,44770,29562,30634,24111,16774140,3218,7481,3222,Tag0,unknown
1623577038204,0,-278,-6.108398437500001E-5,40,61,46,44770,29562,30634,24111,16774140,3218,7481,3222,Tag0,unknown
1623577038222,0,-282,-6.1962890625E-5,40,61,46,44770,29562,30634,24111,16774140,3218,7481,3222,Tag0,unknown
1623577038237,0,-293,-6.43798828125E-5,40,61,46,44770,29562,30634,24111,16774140,3218,7481,3222,Tag0,unknown
1623577038238,0,-290,-6.3720703125E-5,40,61,46,44770,29562,30634,24111,16774140,3218,7481,3222,Tag0,unknown
1623577038253,0,-268,-5.8886718750000006E-5,40,61,46,44770,29562,30634,24111,16774140,3218,7481,3222,Tag0,unknown
1623577038254,0,-275,-6.04248046875E-5,40,61,46,44770,29562,30634,24111,16774140,3218,7481,3222,Tag0,unknown
1623577038255,0,-293,-6.43798828125E-5,40,61,46,44770,29562,30634,24111,16774140,3218,7481,3222,Tag0,unknown
1623577038256,0,-307,-6.74560546875E-5,40,61,46,44770,29562,30634,24111,16774140,3218,7481,3222,Tag0,unknown
1623577038257,0,-275,-6.04248046875E-5,40,61,46,44770,29562,30634,24111,16774140,3218,7481,3222,Tag0,unknown
1623577038258,0,-307,-6.74560546875E-5,40,61,46,44770,29562,30634,24111,16774140,3218,7481,3222,Tag0,unknown
1623577038270,0,-275,-6.04248046875E-5,40,61,46,44770,29562,30634,24111,16774140,3218,7481,3222,Tag0,unknown
1623577038271,0,5,1.0986328125E-6,40,61,46,44770,29562,30634,24111,16774140,3218,7481,3222,Tag0,unknown
1623577038287,0,51,1.1206054687499999E-5,40,61,46,44770,29562,30634,24111,16774140,3218,7481,3222,Tag0,unknown
1623577038288,0,51,1.1206054687499999E-5,40,61,46,44770,29562,30634,24111,16774140,3218,7481,3222,Tag0,unknown
1623577038305,0,85,1.86767578125E-5,40,61,46,44770,29562,30634,24111,16774140,3218,7481,3222,Tag0,unknown
1623577038306,0,68,1.4941406250000001E-5,40,61,46,44770,29562,30634,24111,16774140,3218,7481,3222,Tag0,unknown
1623577038307,0,39,8.5693359375E-6,40,61,46,44770,29562,30634,24111,16774140,3218,7481,3222,Tag0,unknown
1623577038320,0,50,1.0986328125E-5,40,61,46,44770,29562,30634,24111,16774140,3218,7481,3222,Tag0,unknown
1623577038321,0,72,1.58203125E-5,40,61,46,44770,29562,30634,24111,16774140,3218,7481,3222,Tag0,unknown
1623577038336,0,-123,-2.70263671875E-5,40,61,46,44770,29562,30634,24111,16774140,3218,7481,3222,Tag0,unknown
1623577038337,0,-120,-2.63671875E-5,40,61,46,44770,29562,30634,24111,16774140,3218,7481,3222,Tag0,unknown
1623577038353,0,119,2.6147460937500004E-5,40,61,46,44770,29562,30634,24111,16774140,3218,7481,3222,Tag0,unknown
1623577038354,0,119,2.6147460937500004E-5,40,61,46,44770,29562,30634,24111,16774140,3218,7481,3222,Tag0,unknown
1623577038369,0,-121,-2.6586914062500003E-5,40,61,46,44770,29562,30634,24111,16774140,3218,7481,3222,Tag0,unknown
1623577038370,0,-126,-2.7685546875E-5,40,61,46,44770,29562,30634,24111,16774140,3218,7481,3222,Tag0,unknown
1623577038371,0,-123,-2.70263671875E-5,40,61,46,44770,29562,30634,24111,16774140,3218,7481,3222,Tag0,unknown
1623577038387,0,-112,-2.4609375E-5,40,61,46,44770,29562,30634,24111,16774140,3218,7481,3222,Tag0,unknown
1623577038388,0,-121,-2.6586914062500003E-5,40,61,46,44770,29562,30634,24111,16774140,3218,7481,3222,Tag0,unknown
1623577038389,0,104,2.28515625E-5,40,61,46,44770,29562,30634,24111,16774140,3218,7481,3222,Tag0,unknown
1623577038390,0,73,1.6040039062500002E-5,40,61,46,44770,29562,30634,24111,16774140,3218,7481,3222,Tag0,unknown
1623577038405,0,66,1.4501953125E-5,40,61,46,44770,29562,30634,24111,16774140,3218,7481,3222,Tag0,unknown
1623577038406,0,68,1.4941406250000001E-5,40,61,46,44770,29562,30634,24111,16774140,3218,7481,3222,Tag0,unknown
1623577038419,0,71,1.56005859375E-5,40,61,46,44770,29562,30634,24111,16774140,3218,7481,3222,Tag0,unknown
1623577038420,0,112,2.4609375E-5,40,61,46,44770,29562,30634,24111,16774140,3218,7481,3222,Tag0,unknown
1623577038439,0,69,1.51611328125E-5,40,61,46,44770,29562,30634,24111,16774140,3218,7481,3222,Tag0,unknown
1623577038440,0,83,1.82373046875E-5,40,61,46,44770,29562,30634,24111,16774140,3218,7481,3222,Tag0,unknown
1623577038453,0,56,1.23046875E-5,40,61,46,44770,29562,30634,24111,16774140,3218,7481,3222,Tag0,unknown
1623577038454,0,48,1.0546875E-5,40,61,46,44770,29562,30634,24111,16774140,3218,7481,3222,Tag0,unknown
1623577038455,0,32,7.03125E-6,40,61,46,44770,29562,30634,24111,16774140,3218,7481,3222,Tag0,unknown
1623577038471,0,10,2.197265625E-6,40,61,46,44770,29562,30634,24111,16774140,3218,7481,3222,Tag0,unknown
1623577038472,0,6,1.318359375E-6,40,61,46,44770,29562,30634,24111,16774140,3218,7481,3222,Tag0,unknown
1623577038473,0,70,1.5380859375E-5,40,61,46,44770,29562,30634,24111,16774140,3218,7481,3222,Tag0,unknown
1623577038486,0,69,1.51611328125E-5,40,61,46,44770,29562,30634,24111,16774140,3218,7481,3222,Tag0,unknown
1623577038487,0,66,1.4501953125E-5,40,61,46,44770,29562,30634,24111,16774140,3218,7481,3222,Tag0,unknown
1623577038488,0,76,1.669921875E-5,40,61,46,44770,29562,30634,24111,16774140,3218,7481,3222,Tag0,unknown
1623577038503,0,55,1.20849609375E-5,40,61,46,44770,29562,30634,24111,16774140,3218,7481,3222,Tag0,unknown
1623577038504,0,33,7.2509765625E-6,40,61,46,44770,29562,30634,24111,16774140,3218,7481,3222,Tag0,unknown
1623577038520,0,-257,-5.64697265625E-5,40,61,46,44770,29562,30634,24111,16774140,3218,7481,3222,Tag0,unknown
1623577038521,0,5,1.0986328125E-6,40,61,46,44770,29562,30634,24111,16774140,3218,7481,3222,Tag0,unknown
1623577038539,0,68,1.4941406250000001E-5,40,61,46,44770,29562,30634,24111,16774140,3218,7481,3222,Tag0,unknown
1623577038540,0,35,7.6904296875E-6,40,61,46,44770,29562,30634,24111,16774140,3218,7481,3222,Tag0,unknown
1623577038541,0,70,1.5380859375E-5,40,61,46,44770,29562,30634,24111,16774140,3218,7481,3222,Tag0,unknown
1623577038553,0,82,1.8017578124999998E-5,40,61,46,44770,29562,30634,24111,16774140,3218,7481,3222,Tag0,unknown
1623577038569,0,90,1.9775390625E-5,40,61,46,44770,29562,30634,24111,16774140,3218,7481,3222,Tag0,unknown
1623577038570,0,86,1.8896484375000003E-5,40,61,46,44770,29562,30634,24111,16774140,3218,7481,3222,Tag0,unknown
1623577038587,0,57,1.2524414062500001E-5,40,61,46,44770,29562,30634,24111,16774140,3218,7481,3222,Tag0,unknown
1623577038588,0,37,8.1298828125E-6,40,61,46,44770,29562,30634,24111,16774140,3218,7481,3222,Tag0,unknown
1623577038603,0,39,8.5693359375E-6,40,61,46,44770,29562,30634,24111,16774140,3218,7481,3222,Tag0,unknown
1623577038604,0,27,5.9326171875000005E-6,40,61,46,44770,29562,30634,24111,16774140,3218,7481,3222,Tag0,unknown
1623577038620,0,40,8.7890625E-6,40,61,46,44770,29562,30634,24111,16774140,3218,7481,3222,Tag0,unknown
1623577038621,0,65,1.42822265625E-5,40,61,46,44770,29562,30634,24111,16774140,3218,7481,3222,Tag0,unknown
1623577038637,0,105,2.30712890625E-5,40,61,46,44770,29562,30634,24111,16774140,3218,7481,3222,Tag0,unknown
1623577038638,0,105,2.30712890625E-5,40,61,46,44770,29562,30634,24111,16774140,3218,7481,3222,Tag0,unknown
1623577038639,0,114,2.5048828125000003E-5,40,61,46,44770,29562,30634,24111,16774140,3218,7481,3222,Tag0,unknown
1623577038654,0,97,2.13134765625E-5,40,61,46,44770,29562,30634,24111,16774140,3218,7481,3222,Tag0,unknown
1623577038655,0,108,2.3730468750000002E-5,40,61,46,44770,29562,30634,24111,16774140,3218,7481,3222,Tag0,unknown
1623577038656,0,121,2.6586914062500003E-5,40,61,46,44770,29562,30634,24111,16774140,3218,7481,3222,Tag0,unknown
1623577038657,0,72,1.58203125E-5,40,61,46,44770,29562,30634,24111,16774140,3218,7481,3222,Tag0,unknown
1623577038670,0,69,1.51611328125E-5,40,61,46,44770,29562,30634,24111,16774140,3218,7481,3222,Tag0,unknown
1623577038671,0,60,1.318359375E-5,40,61,46,44770,29562,30634,24111,16774140,3218,7481,3222,Tag0,unknown
1623577038688,0,48,1.0546875E-5,40,61,46,44770,29562,30634,24111,16774140,3218,7481,3222,Tag0,unknown
1623577038689,0,56,1.23046875E-5,40,61,46,44770,29562,30634,24111,16774140,3218,7481,3222,Tag0,unknown
1623577038690,0,24,5.2734375E-6,40,61,46,44770,29562,30634,24111,16774140,3218,7481,3222,Tag0,unknown
1623577038705,0,43,9.448242187500001E-6,40,61,46,44770,29562,30634,24111,16774140,3218,7481,3222,Tag0,unknown
1623577038706,0,87,1.91162109375E-5,40,61,46,44770,29562,30634,24111,16774140,3218,7481,3222,Tag0,unknown
1623577038721,0,88,1.93359375E-5,40,61,46,44770,29562,30634,24111,16774140,3218,7481,3222,Tag0,unknown
1623577038722,0,85,1.86767578125E-5,40,61,46,44770,29562,30634,24111,16774140,3218,7481,3222,Tag0,unknown
1623577038723,0,68,1.4941406250000001E-5,40,61,46,44770,29562,30634,24111,16774140,3218,7481,3222,Tag0,unknown
1623577038737,0,74,1.6259765625E-5,40,61,46,44770,29562,30634,24111,16774140,3218,7481,3222,Tag0,unknown
1623577038738,0,58,1.2744140625E-5,40,61,46,44770,29562,30634,24111,16774140,3218,7481,3222,Tag0,unknown
1623577038756,0,64,1.40625E-5,40,61,46,44770,29562,30634,24111,16774140,3218,7481,3222,Tag0,unknown
1623577038757,0,85,1.86767578125E-5,40,61,46,44770,29562,30634,24111,16774140,3218,7481,3222,Tag0,unknown
1623577038758,0,59,1.29638671875E-5,50,54,46,221086,16745733,31018,11965,16746549,7477,1924,1226,Tag0,unknown
1623577038773,0,40,8.7890625E-6,50,54,46,221086,16745733,31018,11965,16746549,7477,1924,1226,Tag0,unknown
1623577038774,0,33,7.2509765625E-6,50,54,46,221086,16745733,31018,11965,16746549,7477,1924,1226,Tag0,unknown
1623577038775,0,52,1.142578125E-5,50,54,46,221086,16745733,31018,11965,16746549,7477,1924,1226,Tag0,unknown
1623577038787,0,41,9.008789062499999E-6,50,54,46,221086,16745733,31018,11965,16746549,7477,1924,1226,Tag0,unknown
1623577038788,0,51,1.1206054687499999E-5,50,54,46,221086,16745733,31018,11965,16746549,7477,1924,1226,Tag0,unknown
1623577038805,0,41,9.008789062499999E-6,50,54,46,221086,16745733,31018,11965,16746549,7477,1924,1226,Tag0,unknown
1623577038806,0,39,8.5693359375E-6,50,54,46,221086,16745733,31018,11965,16746549,7477,1924,1226,Tag0,unknown
1623577038807,0,26,5.712890625E-6,50,54,46,221086,16745733,31018,11965,16746549,7477,1924,1226,Tag0,unknown
1623577038808,0,20,4.39453125E-6,50,54,46,221086,16745733,31018,11965,16746549,7477,1924,1226,Tag0,unknown
1623577038821,0,6,1.318359375E-6,50,54,46,221086,16745733,31018,11965,16746549,7477,1924,1226,Tag0,unknown
1623577038822,0,5,1.0986328125E-6,50,54,46,221086,16745733,31018,11965,16746549,7477,1924,1226,Tag0,unknown
1623577038823,0,-264,-5.80078125E-5,50,54,46,221086,16745733,31018,11965,16746549,7477,1924,1226,Tag0,unknown
1623577038838,0,-265,-5.82275390625E-5,50,54,46,221086,16745733,31018,11965,16746549,7477,1924,1226,Tag0,unknown
1623577038839,0,-269,-5.9106445312499996E-5,50,54,46,221086,16745733,31018,11965,16746549,7477,1924,1226,Tag0,unknown
1623577038855,0,74,1.6259765625E-5,50,54,46,221086,16745733,31018,11965,16746549,7477,1924,1226,Tag0,unknown
1623577038856,0,41,9.008789062499999E-6,50,54,46,221086,16745733,31018,11965,16746549,7477,1924,1226,Tag0,unknown
1623577038870,0,-263,-5.7788085937500005E-5,50,54,46,221086,16745733,31018,11965,16746549,7477,1924,1226,Tag0,unknown
1623577038871,0,-269,-5.9106445312499996E-5,50,54,46,221086,16745733,31018,11965,16746549,7477,1924,1226,Tag0,unknown
1623577038888,0,-262,-5.7568359375E-5,50,54,46,221086,16745733,31018,11965,16746549,7477,1924,1226,Tag0,unknown
1623577038889,0,-266,-5.8447265625E-5,50,54,46,221086,16745733,31018,11965,16746549,7477,1924,1226,Tag0,unknown
1623577038890,0,19,4.1748046875E-6,50,54,46,221086,16745733,31018,11965,16746549,7477,1924,1226,Tag0,unknown
1623577038891,0,28,6.15234375E-6,50,54,46,221086,16745733,31018,11965,16746549,7477,1924,1226,Tag0,unknown
1623577038906,0,35,7.6904296875E-6,50,54,46,221086,16745733,31018,11965,16746549,7477,1924,1226,Tag0,unknown
1623577038907,0,53,1.1645507812500002E-5,50,54,46,221086,16745733,31018,11965,16746549,7477,1924,1226,Tag0,unknown
1623577038922,0,27,5.9326171875000005E-6,50,54,46,221086,16745733,31018,11965,16746549,7477,1924,1226,Tag0,unknown
1623577038923,0,33,7.2509765625E-6,50,54,46,221086,16745733,31018,11965,16746549,7477,1924,1226,Tag0,unknown
1623577038924,0,64,1.40625E-5,50,54,46,221086,16745733,31018,11965,16746549,7477,1924,1226,Tag0,unknown
1623577038938,0,43,9.448242187500001E-6,50,54,46,221086,16745733,31018,11965,16746549,7477,1924,1226,Tag0,unknown
1623577038939,0,28,6.15234375E-6,50,54,46,221086,16745733,31018,11965,16746549,7477,1924,1226,Tag0,unknown
1623577038956,0,61,1.34033203125E-5,50,54,46,221086,16745733,31018,11965,16746549,7477,1924,1226,Tag0,unknown
1623577038957,0,43,9.448242187500001E-6,50,54,46,221086,16745733,31018,11965,16746549,7477,1924,1226,Tag0,unknown
1623577038972,0,52,1.142578125E-5,50,54,46,221086,16745733,31018,11965,16746549,7477,1924,1226,Tag0,unknown
1623577038973,0,58,1.2744140625E-5,50,54,46,221086,16745733,31018,11965,16746549,7477,1924,1226,Tag0,unknown
1623577038974,0,65,1.42822265625E-5,50,54,46,221086,16745733,31018,11965,16746549,7477,1924,1226,Tag0,unknown
1623577038975,0,44,9.66796875E-6,50,54,46,221086,16745733,31018,11965,16746549,7477,1924,1226,Tag0,unknown
1623577038988,0,22,4.833984375E-6,50,54,46,221086,16745733,31018,11965,16746549,7477,1924,1226,Tag0,unknown
1623577038989,0,9,1.9775390625E-6,50,54,46,221086,16745733,31018,11965,16746549,7477,1924,1226,Tag0,unknown
1623577038990,0,8,1.7578125E-6,50,54,46,221086,16745733,31018,11965,16746549,7477,1924,1226,Tag0,unknown
1623577038991,0,12,2.63671875E-6,50,54,46,221086,16745733,31018,11965,16746549,7477,1924,1226,Tag0,unknown
1623577039005,0,24,5.2734375E-6,50,54,46,221086,16745733,31018,11965,16746549,7477,1924,1226,Tag0,unknown
1623577039006,0,29,6.3720703125E-6,50,54,46,221086,16745733,31018,11965,16746549,7477,1924,1226,Tag0,unknown
1623577039007,0,5,1.0986328125E-6,50,54,46,221086,16745733,31018,11965,16746549,7477,1924,1226,Tag0,unknown
1623577039021,0,34,7.4707031250000005E-6,50,54,46,221086,16745733,31018,11965,16746549,7477,1924,1226,Tag0,unknown
1623577039022,0,39,8.5693359375E-6,50,54,46,221086,16745733,31018,11965,16746549,7477,1924,1226,Tag0,unknown
1623577039039,0,50,1.0986328125E-5,50,54,46,221086,16745733,31018,11965,16746549,7477,1924,1226,Tag0,unknown
1623577039040,0,105,2.30712890625E-5,50,54,46,221086,16745733,31018,11965,16746549,7477,1924,1226,Tag0,unknown
1623577039057,0,93,2.04345703125E-5,50,54,46,221086,16745733,31018,11965,16746549,7477,1924,1226,Tag0,unknown
1623577039058,0,68,1.4941406250000001E-5,50,54,46,221086,16745733,31018,11965,16746549,7477,1924,1226,Tag0,unknown
1623577039059,0,90,1.9775390625E-5,50,54,46,221086,16745733,31018,11965,16746549,7477,1924,1226,Tag0,unknown
1623577039072,0,89,1.95556640625E-5,50,54,46,221086,16745733,31018,11965,16746549,7477,1924,1226,Tag0,unknown
1623577039073,0,49,1.07666015625E-5,50,54,46,221086,16745733,31018,11965,16746549,7477,1924,1226,Tag0,unknown
1623577039074,0,48,1.0546875E-5,50,54,46,221086,16745733,31018,11965,16746549,7477,1924,1226,Tag0,unknown
1623577039089,0,34,7.4707031250000005E-6,50,54,46,221086,16745733,31018,11965,16746549,7477,1924,1226,Tag0,unknown
1623577039090,0,20,4.39453125E-6,50,54,46,221086,16745733,31018,11965,16746549,7477,1924,1226,Tag0,unknown
1623577039107,0,26,5.712890625E-6,50,54,46,221086,16745733,31018,11965,16746549,7477,1924,1226,Tag0,unknown
1623577039108,0,11,2.4169921875E-6,50,54,46,221086,16745733,31018,11965,16746549,7477,1924,1226,Tag0,unknown
1623577039109,0,6,1.318359375E-6,50,54,46,221086,16745733,31018,11965,16746549,7477,1924,1226,Tag0,unknown
1623577039122,0,-262,-5.7568359375E-5,50,54,46,221086,16745733,31018,11965,16746549,7477,1924,1226,Tag0,unknown
1623577039123,0,20,4.39453125E-6,50,54,46,221086,16745733,31018,11965,16746549,7477,1924,1226,Tag0,unknown
1623577039124,0,36,7.91015625E-6,50,54,46,221086,16745733,31018,11965,16746549,7477,1924,1226,Tag0,unknown
1623577039138,0,40,8.7890625E-6,50,54,46,221086,16745733,31018,11965,16746549,7477,1924,1226,Tag0,unknown
1623577039139,0,44,9.66796875E-6,50,54,46,221086,16745733,31018,11965,16746549,7477,1924,1226,Tag0,unknown
1623577039140,0,76,1.669921875E-5,50,54,46,221086,16745733,31018,11965,16746549,7477,1924,1226,Tag0,unknown
1623577039155,0,43,9.448242187500001E-6,50,54,46,221086,16745733,31018,11965,16746549,7477,1924,1226,Tag0,unknown
1623577039156,0,50,1.0986328125E-5,50,54,46,221086,16745733,31018,11965,16746549,7477,1924,1226,Tag0,unknown
1623577039171,0,42,9.228515625000002E-6,50,54,46,221086,16745733,31018,11965,16746549,7477,1924,1226,Tag0,unknown
1623577039172,0,49,1.07666015625E-5,50,54,46,221086,16745733,31018,11965,16746549,7477,1924,1226,Tag0,unknown
1623577039189,0,8,1.7578125E-6,50,54,46,221086,16745733,31018,11965,16746549,7477,1924,1226,Tag0,unknown
1623577039190,0,23,5.0537109375E-6,50,54,46,221086,16745733,31018,11965,16746549,7477,1924,1226,Tag0,unknown
1623577039191,0,21,4.614257812500001E-6,50,54,46,221086,16745733,31018,11965,16746549,7477,1924,1226,Tag0,unknown
1623577039205,0,22,4.833984375E-6,50,54,46,221086,16745733,31018,11965,16746549,7477,1924,1226,Tag0,unknown
1623577039206,0,27,5.9326171875000005E-6,50,54,46,221086,16745733,31018,11965,16746549,7477,1924,1226,Tag0,unknown
1623577039207,0,49,1.07666015625E-5,50,54,46,221086,16745733,31018,11965,16746549,7477,1924,1226,Tag0,unknown
1623577039221,0,42,9.228515625000002E-6,50,54,46,221086,16745733,31018,11965,16746549,7477,1924,1226,Tag0,unknown
1623577039222,0,51,1.1206054687499999E-5,50,54,46,221086,16745733,31018,11965,16746549,7477,1924,1226,Tag0,unknown
1623577039239,0,72,1.58203125E-5,50,54,46,221086,16745733,31018,11965,16746549,7477,1924,1226,Tag0,unknown
1623577039240,0,60,1.318359375E-5,50,54,46,221086,16745733,31018,11965,16746549,7477,1924,1226,Tag0,unknown
1623577039241,0,0,0.0,50,54,46,221086,16745733,31018,11965,16746549,7477,1924,1226,Tag0,unknown
1623577039257,0,26,5.712890625E-6,50,54,46,221086,16745733,31018,11965,16746549,7477,1924,1226,Tag0,unknown
1623577039258,0,21,4.614257812500001E-6,50,54,46,221086,16745733,31018,11965,16746549,7477,1924,1226,Tag0,unknown
1623577039259,0,50,1.0986328125E-5,50,54,46,221086,16745733,31018,11965,16746549,7477,1924,1226,Tag0,unknown
1623577039275,0,43,9.448242187500001E-6,50,54,46,221086,16745733,31018,11965,16746549,7477,1924,1226,Tag0,unknown
1623577039276,0,44,9.66796875E-6,50,54,46,221086,16745733,31018,11965,16746549,7477,1924,1226,Tag0,unknown
1623577039277,0,34,7.4707031250000005E-6,50,54,46,221086,16745733,31018,11965,16746549,7477,1924,1226,Tag0,unknown
1623577039289,0,34,7.4707031250000005E-6,50,54,46,221086,16745733,31018,11965,16746549,7477,1924,1226,Tag0,unknown
1623577039290,0,38,8.349609375E-6,50,54,46,221086,16745733,31018,11965,16746549,7477,1924,1226,Tag0,unknown
1623577039291,0,41,9.008789062499999E-6,50,54,46,221086,16745733,31018,11965,16746549,7477,1924,1226,Tag0,unknown
1623577039292,0,57,1.2524414062500001E-5,50,54,46,221086,16745733,31018,11965,16746549,7477,1924,1226,Tag0,unknown
1623577039306,0,65,1.42822265625E-5,50,54,46,221086,16745733,31018,11965,16746549,7477,1924,1226,Tag0,unknown
1623577039307,0,80,1.7578125E-5,50,54,46,221086,16745733,31018,11965,16746549,7477,1924,1226,Tag0,unknown
1623577039322,0,67,1.4721679687500002E-5,50,54,46,221086,16745733,31018,11965,16746549,7477,1924,1226,Tag0,unknown
1623577039323,0,58,1.2744140625E-5,50,54,46,221086,16745733,31018,11965,16746549,7477,1924,1226,Tag0,unknown
1623577039339,0,26,5.712890625E-6,50,54,46,221086,16745733,31018,11965,16746549,7477,1924,1226,Tag0,unknown
1623577039340,0,34,7.4707031250000005E-6,50,54,46,221086,16745733,31018,11965,16746549,7477,1924,1226,Tag0,unknown
1623577039341,0,3,6.591796875E-7,50,54,46,221086,16745733,31018,11965,16746549,7477,1924,1226,Tag0,unknown
1623577039364,0,6,1.318359375E-6,50,54,46,221086,16745733,31018,11965,16746549,7477,1924,1226,Tag0,unknown
1623577039373,0,20,4.39453125E-6,50,54,46,221086,16745733,31018,11965,16746549,7477,1924,1226,Tag0,unknown
1623577039400,0,28,6.15234375E-6,50,54,46,221086,16745733,31018,11965,16746549,7477,1924,1226,Tag0,unknown
1623577039401,0,16,3.515625E-6,50,54,46,221086,16745733,31018,11965,16746549,7477,1924,1226,Tag0,unknown
1623577039428,0,-295,-6.48193359375E-5,50,54,46,221086,16745733,31018,11965,16746549,7477,1924,1226,Tag0,unknown
1623577039429,0,-314,-6.8994140625E-5,50,54,46,221086,16745733,31018,11965,16746549,7477,1924,1226,Tag0,unknown
1623577039430,0,-350,-7.6904296875E-5,50,54,46,221086,16745733,31018,11965,16746549,7477,1924,1226,Tag0,unknown
1623577039439,0,-343,-7.53662109375E-5,50,54,46,221086,16745733,31018,11965,16746549,7477,1924,1226,Tag0,unknown
1623577039440,0,-364,-7.998046875E-5,50,54,46,221086,16745733,31018,11965,16746549,7477,1924,1226,Tag0,unknown
1623577039441,0,-169,-3.7133789062499996E-5,50,54,46,221086,16745733,31018,11965,16746549,7477,1924,1226,Tag0,unknown
1623577039442,0,-354,-7.778320312500001E-5,50,54,46,221086,16745733,31018,11965,16746549,7477,1924,1226,Tag0,unknown
1623577039443,0,-358,-7.8662109375E-5,50,54,46,221086,16745733,31018,11965,16746549,7477,1924,1226,Tag0,unknown
1623577039444,0,-362,-7.954101562500001E-5,50,54,46,221086,16745733,31018,11965,16746549,7477,1924,1226,Tag0,unknown
1623577039445,0,-350,-7.6904296875E-5,50,54,46,221086,16745733,31018,11965,16746549,7477,1924,1226,Tag0,unknown
1623577039456,0,-338,-7.426757812499999E-5,50,54,46,221086,16745733,31018,11965,16746549,7477,1924,1226,Tag0,unknown
1623577039457,0,-300,-6.591796875E-5,50,54,46,221086,16745733,31018,11965,16746549,7477,1924,1226,Tag0,unknown
1623577039472,0,32,7.03125E-6,50,54,46,221086,16745733,31018,11965,16746549,7477,1924,1226,Tag0,unknown
1623577039488,0,89,1.95556640625E-5,50,54,46,221086,16745733,31018,11965,16746549,7477,1924,1226,Tag0,unknown
1623577039489,0,99,2.1752929687500003E-5,50,54,46,221086,16745733,31018,11965,16746549,7477,1924,1226,Tag0,unknown
1623577039513,0,97,2.13134765625E-5,50,54,46,221086,16745733,31018,11965,16746549,7477,1924,1226,Tag0,unknown
1623577039524,0,86,1.8896484375000003E-5,50,54,46,221086,16745733,31018,11965,16746549,7477,1924,1226,Tag0,unknown
1623577039525,0,84,1.8457031250000004E-5,50,54,46,221086,16745733,31018,11965,16746549,7477,1924,1226,Tag0,unknown
1623577039526,0,2,4.39453125E-7,50,54,46,221086,16745733,31018,11965,16746549,7477,1924,1226,Tag0,unknown
1623577039539,0,-273,-5.998535156250001E-5,50,54,46,221086,16745733,31018,11965,16746549,7477,1924,1226,Tag0,unknown
1623577039540,0,36,7.91015625E-6,50,54,46,221086,16745733,31018,11965,16746549,7477,1924,1226,Tag0,unknown
1623577039557,0,112,2.4609375E-5,50,54,46,221086,16745733,31018,11965,16746549,7477,1924,1226,Tag0,unknown
1623577039558,0,113,2.48291015625E-5,50,54,46,221086,16745733,31018,11965,16746549,7477,1924,1226,Tag0,unknown
1623577039559,0,88,1.93359375E-5,50,54,46,221086,16745733,31018,11965,16746549,7477,1924,1226,Tag0,unknown
1623577039575,0,80,1.7578125E-5,50,54,46,221086,16745733,31018,11965,16746549,7477,1924,1226,Tag0,unknown
1623577039576,0,54,1.1865234375000001E-5,50,54,46,221086,16745733,31018,11965,16746549,7477,1924,1226,Tag0,unknown
1623577039577,0,37,8.1298828125E-6,50,54,46,221086,16745733,31018,11965,16746549,7477,1924,1226,Tag0,unknown
1623577039589,0,86,1.8896484375000003E-5,50,54,46,221086,16745733,31018,11965,16746549,7477,1924,1226,Tag0,unknown
1623577039590,0,71,1.56005859375E-5,50,54,46,221086,16745733,31018,11965,16746549,7477,1924,1226,Tag0,unknown
1623577039591,0,59,1.29638671875E-5,50,54,46,221086,16745733,31018,11965,16746549,7477,1924,1226,Tag0,unknown
1623577039608,0,60,1.318359375E-5,50,54,46,221086,16745733,31018,11965,16746549,7477,1924,1226,Tag0,unknown
1623577039609,0,-121,-2.6586914062500003E-5,50,54,46,221086,16745733,31018,11965,16746549,7477,1924,1226,Tag0,unknown
1623577039624,0,-116,-2.548828125E-5,50,54,46,221086,16745733,31018,11965,16746549,7477,1924,1226,Tag0,unknown
1623577039625,0,-125,-2.74658203125E-5,50,54,46,221086,16745733,31018,11965,16746549,7477,1924,1226,Tag0,unknown
1623577039626,0,108,2.3730468750000002E-5,50,54,46,221086,16745733,31018,11965,16746549,7477,1924,1226,Tag0,unknown
1623577039641,0,107,2.35107421875E-5,50,54,46,221086,16745733,31018,11965,16746549,7477,1924,1226,Tag0,unknown
1623577039642,0,51,1.1206054687499999E-5,50,54,46,221086,16745733,31018,11965,16746549,7477,1924,1226,Tag0,unknown
1623577039655,0,64,1.40625E-5,50,54,46,221086,16745733,31018,11965,16746549,7477,1924,1226,Tag0,unknown
1623577039656,0,56,1.23046875E-5,50,54,46,221086,16745733,31018,11965,16746549,7477,1924,1226,Tag0,unknown
1623577039674,0,52,1.142578125E-5,50,54,46,221086,16745733,31018,11965,16746549,7477,1924,1226,Tag0,unknown
1623577039675,0,37,8.1298828125E-6,50,54,46,221086,16745733,31018,11965,16746549,7477,1924,1226,Tag0,unknown
1623577039689,0,50,1.0986328125E-5,50,54,46,221086,16745733,31018,11965,16746549,7477,1924,1226,Tag0,unknown
1623577039690,0,96,2.109375E-5,50,54,46,221086,16745733,31018,11965,16746549,7477,1924,1226,Tag0,unknown
1623577039707,0,106,2.3291015625000003E-5,50,54,46,221086,16745733,31018,11965,16746549,7477,1924,1226,Tag0,unknown
1623577039708,0,119,2.6147460937500004E-5,50,54,46,221086,16745733,31018,11965,16746549,7477,1924,1226,Tag0,unknown
1623577039709,0,104,2.28515625E-5,50,54,46,221086,16745733,31018,11965,16746549,7477,1924,1226,Tag0,unknown
1623577039710,0,86,1.8896484375000003E-5,50,54,46,221086,16745733,31018,11965,16746549,7477,1924,1226,Tag0,unknown
1623577039724,0,68,1.4941406250000001E-5,50,54,46,221086,16745733,31018,11965,16746549,7477,1924,1226,Tag0,unknown
1623577039725,0,53,1.1645507812500002E-5,50,54,46,221086,16745733,31018,11965,16746549,7477,1924,1226,Tag0,unknown
1623577039740,0,51,1.1206054687499999E-5,50,54,46,221086,16745733,31018,11965,16746549,7477,1924,1226,Tag0,unknown
1623577039741,0,55,1.20849609375E-5,50,54,46,221086,16745733,31018,11965,16746549,7477,1924,1226,Tag0,unknown
1623577039742,0,58,1.2744140625E-5,50,54,46,221086,16745733,31018,11965,16746549,7477,1924,1226,Tag0,unknown
1623577039757,0,66,1.4501953125E-5,50,54,46,221086,16745733,31018,11965,16746549,7477,1924,1226,Tag0,unknown
1623577039758,0,67,1.4721679687500002E-5,47,56,46,743191,16774116,12836,16083,26744,7513,2413,2230,Tag0,unknown
1623577039777,0,64,1.40625E-5,47,56,46,743191,16774116,12836,16083,26744,7513,2413,2230,Tag0,unknown
1623577039778,0,58,1.2744140625E-5,47,56,46,743191,16774116,12836,16083,26744,7513,2413,2230,Tag0,unknown
1623577039779,0,58,1.2744140625E-5,47,56,46,743191,16774116,12836,16083,26744,7513,2413,2230,Tag0,unknown
1623577039780,0,53,1.1645507812500002E-5,47,56,46,743191,16774116,12836,16083,26744,7513,2413,2230,Tag0,unknown
1623577039781,0,44,9.66796875E-6,47,56,46,743191,16774116,12836,16083,26744,7513,2413,2230,Tag0,unknown
1623577039782,0,53,1.1645507812500002E-5,47,56,46,743191,16774116,12836,16083,26744,7513,2413,2230,Tag0,unknown
1623577039790,0,66,1.4501953125E-5,47,56,46,743191,16774116,12836,16083,26744,7513,2413,2230,Tag0,unknown
1623577039791,0,64,1.40625E-5,47,56,46,743191,16774116,12836,16083,26744,7513,2413,2230,Tag0,unknown
1623577039792,0,69,1.51611328125E-5,47,56,46,743191,16774116,12836,16083,26744,7513,2413,2230,Tag0,unknown
1623577039807,0,56,1.23046875E-5,47,56,46,743191,16774116,12836,16083,26744,7513,2413,2230,Tag0,unknown
1623577039808,0,90,1.9775390625E-5,47,56,46,743191,16774116,12836,16083,26744,7513,2413,2230,Tag0,unknown
1623577039824,0,107,2.35107421875E-5,47,56,46,743191,16774116,12836,16083,26744,7513,2413,2230,Tag0,unknown
1623577039825,0,84,1.8457031250000004E-5,47,56,46,743191,16774116,12836,16083,26744,7513,2413,2230,Tag0,unknown
1623577039826,0,65,1.42822265625E-5,47,56,46,743191,16774116,12836,16083,26744,7513,2413,2230,Tag0,unknown
1623577039841,0,42,9.228515625000002E-6,47,56,46,743191,16774116,12836,16083,26744,7513,2413,2230,Tag0,unknown
1623577039842,0,43,9.448242187500001E-6,47,56,46,743191,16774116,12836,16083,26744,7513,2413,2230,Tag0,unknown
1623577039858,0,26,5.712890625E-6,47,56,46,743191,16774116,12836,16083,26744,7513,2413,2230,Tag0,unknown
1623577039859,0,32,7.03125E-6,47,56,46,743191,16774116,12836,16083,26744,7513,2413,2230,Tag0,unknown
1623577039873,0,55,1.20849609375E-5,47,56,46,743191,16774116,12836,16083,26744,7513,2413,2230,Tag0,unknown
1623577039874,0,66,1.4501953125E-5,47,56,46,743191,16774116,12836,16083,26744,7513,2413,2230,Tag0,unknown
1623577039890,0,66,1.4501953125E-5,47,56,46,743191,16774116,12836,16083,26744,7513,2413,2230,Tag0,unknown
1623577039891,0,59,1.29638671875E-5,47,56,46,743191,16774116,12836,16083,26744,7513,2413,2230,Tag0,unknown
1623577039892,0,84,1.8457031250000004E-5,47,56,46,743191,16774116,12836,16083,26744,7513,2413,2230,Tag0,unknown
1623577039893,0,70,1.5380859375E-5,47,56,46,743191,16774116,12836,16083,26744,7513,2413,2230,Tag0,unknown
1623577039908,0,51,1.1206054687499999E-5,47,56,46,743191,16774116,12836,16083,26744,7513,2413,2230,Tag0,unknown
1623577039909,0,38,8.349609375E-6,47,56,46,743191,16774116,12836,16083,26744,7513,2413,2230,Tag0,unknown
1623577039910,0,-266,-5.8447265625E-5,47,56,46,743191,16774116,12836,16083,26744,7513,2413,2230,Tag0,unknown
1623577039925,0,-278,-6.108398437500001E-5,47,56,46,743191,16774116,12836,16083,26744,7513,2413,2230,Tag0,unknown
1623577039926,0,-276,-6.064453125E-5,47,56,46,743191,16774116,12836,16083,26744,7513,2413,2230,Tag0,unknown
1623577039927,0,-273,-5.998535156250001E-5,47,56,46,743191,16774116,12836,16083,26744,7513,2413,2230,Tag0,unknown
1623577039941,0,-277,-6.0864257812500005E-5,47,56,46,743191,16774116,12836,16083,26744,7513,2413,2230,Tag0,unknown
1623577039942,0,11,2.4169921875E-6,47,56,46,743191,16774116,12836,16083,26744,7513,2413,2230,Tag0,unknown
1623577039957,0,39,8.5693359375E-6,47,56,46,743191,16774116,12836,16083,26744,7513,2413,2230,Tag0,unknown
1623577039958,0,52,1.142578125E-5,47,56,46,743191,16774116,12836,16083,26744,7513,2413,2230,Tag0,unknown
1623577039975,0,34,7.4707031250000005E-6,47,56,46,743191,16774116,12836,16083,26744,7513,2413,2230,Tag0,unknown
1623577039976,0,34,7.4707031250000005E-6,47,56,46,743191,16774116,12836,16083,26744,7513,2413,2230,Tag0,unknown
1623577039977,0,37,8.1298828125E-6,47,56,46,743191,16774116,12836,16083,26744,7513,2413,2230,Tag0,unknown
1623577039990,0,-274,-6.0205078124999997E-5,47,56,46,743191,16774116,12836,16083,26744,7513,2413,2230,Tag0,unknown
1623577039991,0,-273,-5.998535156250001E-5,47,56,46,743191,16774116,12836,16083,26744,7513,2413,2230,Tag0,unknown
1623577040007,0,26,5.712890625E-6,47,56,46,743191,16774116,12836,16083,26744,7513,2413,2230,Tag0,unknown
1623577040008,0,27,5.9326171875000005E-6,47,56,46,743191,16774116,12836,16083,26744,7513,2413,2230,Tag0,unknown
1623577040023,0,10,2.197265625E-6,47,56,46,743191,16774116,12836,16083,26744,7513,2413,2230,Tag0,unknown
1623577040024,0,22,4.833984375E-6,47,56,46,743191,16774116,12836,16083,26744,7513,2413,2230,Tag0,unknown
1623577040025,0,22,4.833984375E-6,47,56,46,743191,16774116,12836,16083,26744,7513,2413,2230,Tag0,unknown
1623577040039,0,17,3.7353515625000003E-6,47,56,46,743191,16774116,12836,16083,26744,7513,2413,2230,Tag0,unknown
1623577040040,0,20,4.39453125E-6,47,56,46,743191,16774116,12836,16083,26744,7513,2413,2230,Tag0,unknown
1623577040041,0,-263,-5.7788085937500005E-5,47,56,46,743191,16774116,12836,16083,26744,7513,2413,2230,Tag0,unknown
1623577040059,0,-275,-6.04248046875E-5,47,56,46,743191,16774116,12836,16083,26744,7513,2413,2230,Tag0,unknown
1623577040060,0,-261,-5.73486328125E-5,47,56,46,743191,16774116,12836,16083,26744,7513,2413,2230,Tag0,unknown
1623577040061,0,-262,-5.7568359375E-5,47,56,46,743191,16774116,12836,16083,26744,7513,2413,2230,Tag0,unknown
1623577040062,0,-294,-6.4599609375E-5,47,56,46,743191,16774116,12836,16083,26744,7513,2413,2230,Tag0,unknown
1623577040076,0,8,1.7578125E-6,47,56,46,743191,16774116,12836,16083,26744,7513,2413,2230,Tag0,unknown
1623577040077,0,6,1.318359375E-6,47,56,46,743191,16774116,12836,16083,26744,7513,2413,2230,Tag0,unknown
1623577040091,0,-261,-5.73486328125E-5,47,56,46,743191,16774116,12836,16083,26744,7513,2413,2230,Tag0,unknown
1623577040092,0,-273,-5.998535156250001E-5,47,56,46,743191,16774116,12836,16083,26744,7513,2413,2230,Tag0,unknown
1623577040093,0,-265,-5.82275390625E-5,47,56,46,743191,16774116,12836,16083,26744,7513,2413,2230,Tag0,unknown
1623577040108,0,36,7.91015625E-6,47,56,46,743191,16774116,12836,16083,26744,7513,2413,2230,Tag0,unknown
1623577040109,0,41,9.008789062499999E-6,47,56,46,743191,16774116,12836,16083,26744,7513,2413,2230,Tag0,unknown
1623577040110,0,17,3.7353515625000003E-6,47,56,46,743191,16774116,12836,16083,26744,7513,2413,2230,Tag0,unknown
1623577040111,0,20,4.39453125E-6,47,56,46,743191,16774116,12836,16083,26744,7513,2413,2230,Tag0,unknown
1623577040125,0,25,5.4931640625E-6,47,56,46,743191,16774116,12836,16083,26744,7513,2413,2230,Tag0,unknown
1623577040126,0,58,1.2744140625E-5,47,56,46,743191,16774116,12836,16083,26744,7513,2413,2230,Tag0,unknown
1623577040141,0,54,1.1865234375000001E-5,47,56,46,743191,16774116,12836,16083,26744,7513,2413,2230,Tag0,unknown
1623577040142,0,54,1.1865234375000001E-5,47,56,46,743191,16774116,12836,16083,26744,7513,2413,2230,Tag0,unknown
1623577040159,0,58,1.2744140625E-5,47,56,46,743191,16774116,12836,16083,26744,7513,2413,2230,Tag0,unknown
1623577040160,0,64,1.40625E-5,47,56,46,743191,16774116,12836,16083,26744,7513,2413,2230,Tag0,unknown
1623577040161,0,44,9.66796875E-6,47,56,46,743191,16774116,12836,16083,26744,7513,2413,2230,Tag0,unknown
1623577040162,0,59,1.29638671875E-5,47,56,46,743191,16774116,12836,16083,26744,7513,2413,2230,Tag0,unknown
1623577040176,0,52,1.142578125E-5,47,56,46,743191,16774116,12836,16083,26744,7513,2413,2230,Tag0,unknown
1623577040177,0,52,1.142578125E-5,47,56,46,743191,16774116,12836,16083,26744,7513,2413,2230,Tag0,unknown
1623577040178,0,71,1.56005859375E-5,47,56,46,743191,16774116,12836,16083,26744,7513,2413,2230,Tag0,unknown
1623577040179,0,64,1.40625E-5,47,56,46,743191,16774116,12836,16083,26744,7513,2413,2230,Tag0,unknown
1623577040192,0,42,9.228515625000002E-6,47,56,46,743191,16774116,12836,16083,26744,7513,2413,2230,Tag0,unknown
1623577040193,0,13,2.8564453125E-6,47,56,46,743191,16774116,12836,16083,26744,7513,2413,2230,Tag0,unknown
1623577040207,0,18,3.955078125E-6,47,56,46,743191,16774116,12836,16083,26744,7513,2413,2230,Tag0,unknown
1623577040208,0,33,7.2509765625E-6,47,56,46,743191,16774116,12836,16083,26744,7513,2413,2230,Tag0,unknown
1623577040226,0,18,3.955078125E-6,47,56,46,743191,16774116,12836,16083,26744,7513,2413,2230,Tag0,unknown
1623577040227,0,21,4.614257812500001E-6,47,56,46,743191,16774116,12836,16083,26744,7513,2413,2230,Tag0,unknown
1623577040228,0,19,4.1748046875E-6,47,56,46,743191,16774116,12836,16083,26744,7513,2413,2230,Tag0,unknown
1623577040242,0,20,4.39453125E-6,47,56,46,743191,16774116,12836,16083,26744,7513,2413,2230,Tag0,unknown
1623577040243,0,-257,-5.64697265625E-5,47,56,46,743191,16774116,12836,16083,26744,7513,2413,2230,Tag0,unknown
1623577040259,0,-266,-5.8447265625E-5,47,56,46,743191,16774116,12836,16083,26744,7513,2413,2230,Tag0,unknown
1623577040260,0,-270,-5.9326171875E-5,47,56,46,743191,16774116,12836,16083,26744,7513,2413,2230,Tag0,unknown
1623577040261,0,-282,-6.1962890625E-5,47,56,46,743191,16774116,12836,16083,26744,7513,2413,2230,Tag0,unknown
1623577040262,0,-279,-6.13037109375E-5,47,56,46,743191,16774116,12836,16083,26744,7513,2413,2230,Tag0,unknown
1623577040275,0,-284,-6.240234375E-5,47,56,46,743191,16774116,12836,16083,26744,7513,2413,2230,Tag0,unknown
1623577040276,0,-260,-5.712890625E-5,47,56,46,743191,16774116,12836,16083,26744,7513,2413,2230,Tag0,unknown
1623577040292,0,19,4.1748046875E-6,47,56,46,743191,16774116,12836,16083,26744,7513,2413,2230,Tag0,unknown
1623577040293,0,33,7.2509765625E-6,47,56,46,743191,16774116,12836,16083,26744,7513,2413,2230,Tag0,unknown
1623577040308,0,49,1.07666015625E-5,47,56,46,743191,16774116,12836,16083,26744,7513,2413,2230,Tag0,unknown
1623577040309,0,49,1.07666015625E-5,47,56,46,743191,16774116,12836,16083,26744,7513,2413,2230,Tag0,unknown
1623577040326,0,41,9.008789062499999E-6,47,56,46,743191,16774116,12836,16083,26744,7513,2413,2230,Tag0,unknown
1623577040327,0,43,9.448242187500001E-6,47,56,46,743191,16774116,12836,16083,26744,7513,2413,2230,Tag0,unknown
1623577040328,0,48,1.0546875E-5,47,56,46,743191,16774116,12836,16083,26744,7513,2413,2230,Tag0,unknown
1623577040345,0,51,1.1206054687499999E-5,47,56,46,743191,16774116,12836,16083,26744,7513,2413,2230,Tag0,unknown
1623577040346,0,41,9.008789062499999E-6,47,56,46,743191,16774116,12836,16083,26744,7513,2413,2230,Tag0,unknown
1623577040347,0,35,7.6904296875E-6,47,56,46,743191,16774116,12836,16083,26744,7513,2413,2230,Tag0,unknown
1623577040348,0,22,4.833984375E-6,47,56,46,743191,16774116,12836,16083,26744,7513,2413,2230,Tag0,unknown
1623577040357,0,28,6.15234375E-6,47,56,46,743191,16774116,12836,16083,26744,7513,2413,2230,Tag0,unknown
1623577040376,0,43,9.448242187500001E-6,47,56,46,743191,16774116,12836,16083,26744,7513,2413,2230,Tag0,unknown
1623577040377,0,5,1.0986328125E-6,47,56,46,743191,16774116,12836,16083,26744,7513,2413,2230,Tag0,unknown
1623577040378,0,3,6.591796875E-7,47,56,46,743191,16774116,12836,16083,26744,7513,2413,2230,Tag0,unknown
1623577040390,0,-278,-6.108398437500001E-5,47,56,46,743191,16774116,12836,16083,26744,7513,2413,2230,Tag0,unknown
1623577040391,0,-277,-6.0864257812500005E-5,47,56,46,743191,16774116,12836,16083,26744,7513,2413,2230,Tag0,unknown
1623577040409,0,-266,-5.8447265625E-5,47,56,46,743191,16774116,12836,16083,26744,7513,2413,2230,Tag0,unknown
1623577040410,0,-260,-5.712890625E-5,47,56,46,743191,16774116,12836,16083,26744,7513,2413,2230,Tag0,unknown
1623577040430,0,-258,-5.6689453125000004E-5,47,56,46,743191,16774116,12836,16083,26744,7513,2413,2230,Tag0,unknown
1623577040431,0,-264,-5.80078125E-5,47,56,46,743191,16774116,12836,16083,26744,7513,2413,2230,Tag0,unknown
1623577040432,0,27,5.9326171875000005E-6,47,56,46,743191,16774116,12836,16083,26744,7513,2413,2230,Tag0,unknown
1623577040443,0,71,1.56005859375E-5,47,56,46,743191,16774116,12836,16083,26744,7513,2413,2230,Tag0,unknown
1623577040444,0,67,1.4721679687500002E-5,47,56,46,743191,16774116,12836,16083,26744,7513,2413,2230,Tag0,unknown
1623577040459,0,44,9.66796875E-6,47,56,46,743191,16774116,12836,16083,26744,7513,2413,2230,Tag0,unknown
1623577040460,0,45,9.8876953125E-6,47,56,46,743191,16774116,12836,16083,26744,7513,2413,2230,Tag0,unknown
1623577040476,0,70,1.5380859375E-5,47,56,46,743191,16774116,12836,16083,26744,7513,2413,2230,Tag0,unknown
1623577040477,0,53,1.1645507812500002E-5,47,56,46,743191,16774116,12836,16083,26744,7513,2413,2230,Tag0,unknown
1623577040492,0,55,1.20849609375E-5,47,56,46,743191,16774116,12836,16083,26744,7513,2413,2230,Tag0,unknown
1623577040493,0,66,1.4501953125E-5,47,56,46,743191,16774116,12836,16083,26744,7513,2413,2230,Tag0,unknown
1623577040511,0,83,1.82373046875E-5,47,56,46,743191,16774116,12836,16083,26744,7513,2413,2230,Tag0,unknown
1623577040512,0,58,1.2744140625E-5,47,56,46,743191,16774116,12836,16083,26744,7513,2413,2230,Tag0,unknown
1623577040526,0,40,8.7890625E-6,47,56,46,743191,16774116,12836,16083,26744,7513,2413,2230,Tag0,unknown
1623577040527,0,54,1.1865234375000001E-5,47,56,46,743191,16774116,12836,16083,26744,7513,2413,2230,Tag0,unknown
1623577040542,0,25,5.4931640625E-6,47,56,46,743191,16774116,12836,16083,26744,7513,2413,2230,Tag0,unknown
1623577040543,0,8,1.7578125E-6,47,56,46,743191,16774116,12836,16083,26744,7513,2413,2230,Tag0,unknown
1623577040559,0,49,1.07666015625E-5,47,56,46,743191,16774116,12836,16083,26744,7513,2413,2230,Tag0,unknown
1623577040560,0,54,1.1865234375000001E-5,47,56,46,743191,16774116,12836,16083,26744,7513,2413,2230,Tag0,unknown
1623577040561,0,27,5.9326171875000005E-6,47,56,46,743191,16774116,12836,16083,26744,7513,2413,2230,Tag0,unknown
1623577040576,0,19,4.1748046875E-6,47,56,46,743191,16774116,12836,16083,26744,7513,2413,2230,Tag0,unknown
1623577040577,0,29,6.3720703125E-6,47,56,46,743191,16774116,12836,16083,26744,7513,2413,2230,Tag0,unknown
1623577040601,0,13,2.8564453125E-6,47,56,46,743191,16774116,12836,16083,26744,7513,2413,2230,Tag0,unknown
1623577040609,0,16,3.515625E-6,47,56,46,743191,16774116,12836,16083,26744,7513,2413,2230,Tag0,unknown
1623577040633,0,17,3.7353515625000003E-6,47,56,46,743191,16774116,12836,16083,26744,7513,2413,2230,Tag0,unknown
1623577040643,0,-260,-5.712890625E-5,47,56,46,743191,16774116,12836,16083,26744,7513,2413,2230,Tag0,unknown
1623577040644,0,-305,-6.70166015625E-5,47,56,46,743191,16774116,12836,16083,26744,7513,2413,2230,Tag0,unknown
1623577040645,0,-376,-8.261718750000001E-5,47,56,46,743191,16774116,12836,16083,26744,7513,2413,2230,Tag0,unknown
1623577040646,0,-146,-3.2080078125000004E-5,47,56,46,743191,16774116,12836,16083,26744,7513,2413,2230,Tag0,unknown
1623577040659,0,-377,-8.28369140625E-5,47,56,46,743191,16774116,12836,16083,26744,7513,2413,2230,Tag0,unknown
1623577040660,0,-357,-7.844238281250001E-5,47,56,46,743191,16774116,12836,16083,26744,7513,2413,2230,Tag0,unknown
1623577040661,0,-149,-3.27392578125E-5,47,56,46,743191,16774116,12836,16083,26744,7513,2413,2230,Tag0,unknown
1623577040662,0,-371,-8.151855468750001E-5,47,56,46,743191,16774116,12836,16083,26744,7513,2413,2230,Tag0,unknown
1623577040663,0,-330,-7.2509765625E-5,47,56,46,743191,16774116,12836,16083,26744,7513,2413,2230,Tag0,unknown
1623577040676,0,-286,-6.2841796875E-5,47,56,46,743191,16774116,12836,16083,26744,7513,2413,2230,Tag0,unknown
1623577040677,0,3,6.591796875E-7,47,56,46,743191,16774116,12836,16083,26744,7513,2413,2230,Tag0,unknown
1623577040678,0,37,8.1298828125E-6,47,56,46,743191,16774116,12836,16083,26744,7513,2413,2230,Tag0,unknown
1623577040692,0,50,1.0986328125E-5,47,56,46,743191,16774116,12836,16083,26744,7513,2413,2230,Tag0,unknown
1623577040693,0,68,1.4941406250000001E-5,47,56,46,743191,16774116,12836,16083,26744,7513,2413,2230,Tag0,unknown
1623577040694,0,92,2.021484375E-5,47,56,46,743191,16774116,12836,16083,26744,7513,2413,2230,Tag0,unknown
1623577040711,0,81,1.77978515625E-5,47,56,46,743191,16774116,12836,16083,26744,7513,2413,2230,Tag0,unknown
1623577040712,0,69,1.51611328125E-5,47,56,46,743191,16774116,12836,16083,26744,7513,2413,2230,Tag0,unknown
1623577040727,0,44,9.66796875E-6,47,56,46,743191,16774116,12836,16083,26744,7513,2413,2230,Tag0,unknown
1623577040728,0,24,5.2734375E-6,47,56,46,743191,16774116,12836,16083,26744,7513,2413,2230,Tag0,unknown
1623577040729,0,-311,-6.833496093750001E-5,47,56,46,743191,16774116,12836,16083,26744,7513,2413,2230,Tag0,unknown
1623577040730,0,-311,-6.833496093750001E-5,47,56,46,743191,16774116,12836,16083,26744,7513,2413,2230,Tag0,unknown
1623577040745,0,-289,-6.35009765625E-5,47,56,46,743191,16774116,12836,16083,26744,7513,2413,2230,Tag0,unknown
1623577040746,0,-275,-6.04248046875E-5,47,56,46,743191,16774116,12836,16083,26744,7513,2413,2230,Tag0,unknown
1623577040747,0,42,9.228515625000002E-6,47,56,46,743191,16774116,12836,16083,26744,7513,2413,2230,Tag0,unknown
1623577040760,0,88,1.93359375E-5,43,61,46,108788,16770375,16755638,21621,16746656,5548,2093,701,Tag0,unknown
1623577040761,0,109,2.39501953125E-5,43,61,46,108788,16770375,16755638,21621,16746656,5548,2093,701,Tag0,unknown
1623577040762,0,75,1.64794921875E-5,43,61,46,108788,16770375,16755638,21621,16746656,5548,2093,701,Tag0,unknown
1623577040779,0,81,1.77978515625E-5,43,61,46,108788,16770375,16755638,21621,16746656,5548,2093,701,Tag0,unknown
1623577040780,0,88,1.93359375E-5,43,61,46,108788,16770375,16755638,21621,16746656,5548,2093,701,Tag0,unknown
1623577040793,0,92,2.021484375E-5,43,61,46,108788,16770375,16755638,21621,16746656,5548,2093,701,Tag0,unknown
1623577040811,0,108,2.3730468750000002E-5,43,61,46,108788,16770375,16755638,21621,16746656,5548,2093,701,Tag0,unknown
1623577040812,0,104,2.28515625E-5,43,61,46,108788,16770375,16755638,21621,16746656,5548,2093,701,Tag0,unknown
1623577040813,0,68,1.4941406250000001E-5,43,61,46,108788,16770375,16755638,21621,16746656,5548,2093,701,Tag0,unknown
1623577040814,0,0,0.0,43,61,46,108788,16770375,16755638,21621,16746656,5548,2093,701,Tag0,unknown
1623577040827,0,-285,-6.26220703125E-5,43,61,46,108788,16770375,16755638,21621,16746656,5548,2093,701,Tag0,unknown
1623577040828,0,-277,-6.0864257812500005E-5,43,61,46,108788,16770375,16755638,21621,16746656,5548,2093,701,Tag0,unknown
1623577040829,0,-311,-6.833496093750001E-5,43,61,46,108788,16770375,16755638,21621,16746656,5548,2093,701,Tag0,unknown
1623577040830,0,-300,-6.591796875E-5,43,61,46,108788,16770375,16755638,21621,16746656,5548,2093,701,Tag0,unknown
1623577040831,0,-265,-5.82275390625E-5,43,61,46,108788,16770375,16755638,21621,16746656,5548,2093,701,Tag0,unknown
1623577040842,0,21,4.614257812500001E-6,43,61,46,108788,16770375,16755638,21621,16746656,5548,2093,701,Tag0,unknown
1623577040843,0,25,5.4931640625E-6,43,61,46,108788,16770375,16755638,21621,16746656,5548,2093,701,Tag0,unknown
1623577040844,0,68,1.4941406250000001E-5,43,61,46,108788,16770375,16755638,21621,16746656,5548,2093,701,Tag0,unknown
1623577040858,0,64,1.40625E-5,43,61,46,108788,16770375,16755638,21621,16746656,5548,2093,701,Tag0,unknown
1623577040859,0,72,1.58203125E-5,43,61,46,108788,16770375,16755638,21621,16746656,5548,2093,701,Tag0,unknown
1623577040860,0,90,1.9775390625E-5,43,61,46,108788,16770375,16755638,21621,16746656,5548,2093,701,Tag0,unknown
1623577040877,0,92,2.021484375E-5,43,61,46,108788,16770375,16755638,21621,16746656,5548,2093,701,Tag0,unknown
1623577040878,0,91,1.99951171875E-5,43,61,46,108788,16770375,16755638,21621,16746656,5548,2093,701,Tag0,unknown
1623577040879,0,101,2.2192382812500002E-5,43,61,46,108788,16770375,16755638,21621,16746656,5548,2093,701,Tag0,unknown
1623577040893,0,102,2.2412109374999998E-5,43,61,46,108788,16770375,16755638,21621,16746656,5548,2093,701,Tag0,unknown
1623577040894,0,92,2.021484375E-5,43,61,46,108788,16770375,16755638,21621,16746656,5548,2093,701,Tag0,unknown
1623577040895,0,100,2.197265625E-5,43,61,46,108788,16770375,16755638,21621,16746656,5548,2093,701,Tag0,unknown
1623577040911,0,101,2.2192382812500002E-5,43,61,46,108788,16770375,16755638,21621,16746656,5548,2093,701,Tag0,unknown
1623577040912,0,88,1.93359375E-5,43,61,46,108788,16770375,16755638,21621,16746656,5548,2093,701,Tag0,unknown
1623577040913,0,76,1.669921875E-5,43,61,46,108788,16770375,16755638,21621,16746656,5548,2093,701,Tag0,unknown
1623577040928,0,72,1.58203125E-5,43,61,46,108788,16770375,16755638,21621,16746656,5548,2093,701,Tag0,unknown
1623577040929,0,65,1.42822265625E-5,43,61,46,108788,16770375,16755638,21621,16746656,5548,2093,701,Tag0,unknown
1623577040930,0,60,1.318359375E-5,43,61,46,108788,16770375,16755638,21621,16746656,5548,2093,701,Tag0,unknown
1623577040931,0,67,1.4721679687500002E-5,43,61,46,108788,16770375,16755638,21621,16746656,5548,2093,701,Tag0,unknown
1623577040932,0,86,1.8896484375000003E-5,43,61,46,108788,16770375,16755638,21621,16746656,5548,2093,701,Tag0,unknown
1623577040946,0,86,1.8896484375000003E-5,43,61,46,108788,16770375,16755638,21621,16746656,5548,2093,701,Tag0,unknown
1623577040947,0,73,1.6040039062500002E-5,43,61,46,108788,16770375,16755638,21621,16746656,5548,2093,701,Tag0,unknown
1623577040961,0,107,2.35107421875E-5,43,61,46,108788,16770375,16755638,21621,16746656,5548,2093,701,Tag0,unknown
1623577040962,0,84,1.8457031250000004E-5,43,61,46,108788,16770375,16755638,21621,16746656,5548,2093,701,Tag0,unknown
1623577040977,0,33,7.2509765625E-6,43,61,46,108788,16770375,16755638,21621,16746656,5548,2093,701,Tag0,unknown
1623577040978,0,6,1.318359375E-6,43,61,46,108788,16770375,16755638,21621,16746656,5548,2093,701,Tag0,unknown
1623577040979,0,19,4.1748046875E-6,43,61,46,108788,16770375,16755638,21621,16746656,5548,2093,701,Tag0,unknown
1623577040993,0,12,2.63671875E-6,43,61,46,108788,16770375,16755638,21621,16746656,5548,2093,701,Tag0,unknown
1623577040994,0,21,4.614257812500001E-6,43,61,46,108788,16770375,16755638,21621,16746656,5548,2093,701,Tag0,unknown
1623577041008,0,85,1.86767578125E-5,43,61,46,108788,16770375,16755638,21621,16746656,5548,2093,701,Tag0,unknown
1623577041009,0,97,2.13134765625E-5,43,61,46,108788,16770375,16755638,21621,16746656,5548,2093,701,Tag0,unknown
1623577041010,0,118,2.5927734375E-5,43,61,46,108788,16770375,16755638,21621,16746656,5548,2093,701,Tag0,unknown
1623577041011,0,-88,-1.93359375E-5,43,61,46,108788,16770375,16755638,21621,16746656,5548,2093,701,Tag0,unknown
1623577041027,0,-88,-1.93359375E-5,43,61,46,108788,16770375,16755638,21621,16746656,5548,2093,701,Tag0,unknown
1623577041028,0,-101,-2.2192382812500002E-5,43,61,46,108788,16770375,16755638,21621,16746656,5548,2093,701,Tag0,unknown
1623577041029,0,122,2.6806640625E-5,43,61,46,108788,16770375,16755638,21621,16746656,5548,2093,701,Tag0,unknown
1623577041044,0,107,2.35107421875E-5,43,61,46,108788,16770375,16755638,21621,16746656,5548,2093,701,Tag0,unknown
1623577041045,0,59,1.29638671875E-5,43,61,46,108788,16770375,16755638,21621,16746656,5548,2093,701,Tag0,unknown
1623577041046,0,44,9.66796875E-6,43,61,46,108788,16770375,16755638,21621,16746656,5548,2093,701,Tag0,unknown
1623577041064,0,21,4.614257812500001E-6,43,61,46,108788,16770375,16755638,21621,16746656,5548,2093,701,Tag0,unknown
1623577041065,0,10,2.197265625E-6,43,61,46,108788,16770375,16755638,21621,16746656,5548,2093,701,Tag0,unknown
1623577041066,0,-290,-6.3720703125E-5,43,61,46,108788,16770375,16755638,21621,16746656,5548,2093,701,Tag0,unknown
1623577041067,0,-302,-6.6357421875E-5,43,61,46,108788,16770375,16755638,21621,16746656,5548,2093,701,Tag0,unknown
1623577041078,0,-301,-6.613769531250001E-5,43,61,46,108788,16770375,16755638,21621,16746656,5548,2093,701,Tag0,unknown
1623577041079,0,-296,-6.50390625E-5,43,61,46,108788,16770375,16755638,21621,16746656,5548,2093,701,Tag0,unknown
1623577041080,0,10,2.197265625E-6,43,61,46,108788,16770375,16755638,21621,16746656,5548,2093,701,Tag0,unknown
1623577041081,0,25,5.4931640625E-6,43,61,46,108788,16770375,16755638,21621,16746656,5548,2093,701,Tag0,unknown
1623577041094,0,34,7.4707031250000005E-6,43,61,46,108788,16770375,16755638,21621,16746656,5548,2093,701,Tag0,unknown
1623577041095,0,98,2.1533203125E-5,43,61,46,108788,16770375,16755638,21621,16746656,5548,2093,701,Tag0,unknown
1623577041109,0,-126,-2.7685546875E-5,43,61,46,108788,16770375,16755638,21621,16746656,5548,2093,701,Tag0,unknown
1623577041110,0,-110,-2.4169921875E-5,43,61,46,108788,16770375,16755638,21621,16746656,5548,2093,701,Tag0,unknown
1623577041111,0,-96,-2.109375E-5,43,61,46,108788,16770375,16755638,21621,16746656,5548,2093,701,Tag0,unknown
1623577041129,0,-101,-2.2192382812500002E-5,43,61,46,108788,16770375,16755638,21621,16746656,5548,2093,701,Tag0,unknown
1623577041130,0,-122,-2.6806640625E-5,43,61,46,108788,16770375,16755638,21621,16746656,5548,2093,701,Tag0,unknown
1623577041131,0,88,1.93359375E-5,43,61,46,108788,16770375,16755638,21621,16746656,5548,2093,701,Tag0,unknown
1623577041132,0,49,1.07666015625E-5,43,61,46,108788,16770375,16755638,21621,16746656,5548,2093,701,Tag0,unknown
1623577041148,0,42,9.228515625000002E-6,43,61,46,108788,16770375,16755638,21621,16746656,5548,2093,701,Tag0,unknown
1623577041149,0,25,5.4931640625E-6,43,61,46,108788,16770375,16755638,21621,16746656,5548,2093,701,Tag0,unknown
1623577041150,0,-264,-5.80078125E-5,43,61,46,108788,16770375,16755638,21621,16746656,5548,2093,701,Tag0,unknown
1623577041151,0,-274,-6.0205078124999997E-5,43,61,46,108788,16770375,16755638,21621,16746656,5548,2093,701,Tag0,unknown
1623577041166,0,-291,-6.39404296875E-5,43,61,46,108788,16770375,16755638,21621,16746656,5548,2093,701,Tag0,unknown
1623577041170,0,-295,-6.48193359375E-5,43,61,46,108788,16770375,16755638,21621,16746656,5548,2093,701,Tag0,unknown
1623577041171,0,-298,-6.5478515625E-5,43,61,46,108788,16770375,16755638,21621,16746656,5548,2093,701,Tag0,unknown
1623577041172,0,-301,-6.613769531250001E-5,43,61,46,108788,16770375,16755638,21621,16746656,5548,2093,701,Tag0,unknown
1623577041173,0,-306,-6.723632812500001E-5,43,61,46,108788,16770375,16755638,21621,16746656,5548,2093,701,Tag0,unknown
1623577041178,0,-291,-6.39404296875E-5,43,61,46,108788,16770375,16755638,21621,16746656,5548,2093,701,Tag0,unknown
1623577041179,0,-284,-6.240234375E-5,43,61,46,108788,16770375,16755638,21621,16746656,5548,2093,701,Tag0,unknown
1623577041180,0,37,8.1298828125E-6,43,61,46,108788,16770375,16755638,21621,16746656,5548,2093,701,Tag0,unknown
1623577041193,0,70,1.5380859375E-5,43,61,46,108788,16770375,16755638,21621,16746656,5548,2093,701,Tag0,unknown
1623577041194,0,76,1.669921875E-5,43,61,46,108788,16770375,16755638,21621,16746656,5548,2093,701,Tag0,unknown
1623577041195,0,81,1.77978515625E-5,43,61,46,108788,16770375,16755638,21621,16746656,5548,2093,701,Tag0,unknown
1623577041209,0,68,1.4941406250000001E-5,43,61,46,108788,16770375,16755638,21621,16746656,5548,2093,701,Tag0,unknown
1623577041210,0,87,1.91162109375E-5,43,61,46,108788,16770375,16755638,21621,16746656,5548,2093,701,Tag0,unknown
1623577041227,0,118,2.5927734375E-5,43,61,46,108788,16770375,16755638,21621,16746656,5548,2093,701,Tag0,unknown
1623577041228,0,-108,-2.3730468750000002E-5,43,61,46,108788,16770375,16755638,21621,16746656,5548,2093,701,Tag0,unknown
1623577041243,0,82,1.8017578124999998E-5,43,61,46,108788,16770375,16755638,21621,16746656,5548,2093,701,Tag0,unknown
1623577041244,0,74,1.6259765625E-5,43,61,46,108788,16770375,16755638,21621,16746656,5548,2093,701,Tag0,unknown
1623577041245,0,21,4.614257812500001E-6,43,61,46,108788,16770375,16755638,21621,16746656,5548,2093,701,Tag0,unknown
1623577041259,0,11,2.4169921875E-6,43,61,46,108788,16770375,16755638,21621,16746656,5548,2093,701,Tag0,unknown
1623577041260,0,0,0.0,43,61,46,108788,16770375,16755638,21621,16746656,5548,2093,701,Tag0,unknown
1623577041261,0,-300,-6.591796875E-5,43,61,46,108788,16770375,16755638,21621,16746656,5548,2093,701,Tag0,unknown
1623577041277,0,-318,-6.9873046875E-5,43,61,46,108788,16770375,16755638,21621,16746656,5548,2093,701,Tag0,unknown
1623577041278,0,-311,-6.833496093750001E-5,43,61,46,108788,16770375,16755638,21621,16746656,5548,2093,701,Tag0,unknown
1623577041294,0,-299,-6.56982421875E-5,43,61,46,108788,16770375,16755638,21621,16746656,5548,2093,701,Tag0,unknown
1623577041295,0,-286,-6.2841796875E-5,43,61,46,108788,16770375,16755638,21621,16746656,5548,2093,701,Tag0,unknown
1623577041311,0,10,2.197265625E-6,43,61,46,108788,16770375,16755638,21621,16746656,5548,2093,701,Tag0,unknown
1623577041312,0,51,1.1206054687499999E-5,43,61,46,108788,16770375,16755638,21621,16746656,5548,2093,701,Tag0,unknown
1623577041328,0,75,1.64794921875E-5,43,61,46,108788,16770375,16755638,21621,16746656,5548,2093,701,Tag0,unknown
1623577041329,0,76,1.669921875E-5,43,61,46,108788,16770375,16755638,21621,16746656,5548,2093,701,Tag0,unknown
1623577041344,0,66,1.4501953125E-5,43,61,46,108788,16770375,16755638,21621,16746656,5548,2093,701,Tag0,unknown
1623577041345,0,53,1.1645507812500002E-5,43,61,46,108788,16770375,16755638,21621,16746656,5548,2093,701,Tag0,unknown
1623577041346,0,54,1.1865234375000001E-5,43,61,46,108788,16770375,16755638,21621,16746656,5548,2093,701,Tag0,unknown
1623577041359,0,39,8.5693359375E-6,43,61,46,108788,16770375,16755638,21621,16746656,5548,2093,701,Tag0,unknown
1623577041360,0,29,6.3720703125E-6,43,61,46,108788,16770375,16755638,21621,16746656,5548,2093,701,Tag0,unknown
1623577041378,0,43,9.448242187500001E-6,43,61,46,108788,16770375,16755638,21621,16746656,5548,2093,701,Tag0,unknown
1623577041379,0,18,3.955078125E-6,43,61,46,108788,16770375,16755638,21621,16746656,5548,2093,701,Tag0,unknown
1623577041395,0,17,3.7353515625000003E-6,43,61,46,108788,16770375,16755638,21621,16746656,5548,2093,701,Tag0,unknown
1623577041396,0,34,7.4707031250000005E-6,43,61,46,108788,16770375,16755638,21621,16746656,5548,2093,701,Tag0,unknown
1623577041411,0,18,3.955078125E-6,43,61,46,108788,16770375,16755638,21621,16746656,5548,2093,701,Tag0,unknown
1623577041412,0,17,3.7353515625000003E-6,43,61,46,108788,16770375,16755638,21621,16746656,5548,2093,701,Tag0,unknown
1623577041413,0,19,4.1748046875E-6,43,61,46,108788,16770375,16755638,21621,16746656,5548,2093,701,Tag0,unknown
1623577041414,0,38,8.349609375E-6,43,61,46,108788,16770375,16755638,21621,16746656,5548,2093,701,Tag0,unknown
1623577041415,0,39,8.5693359375E-6,43,61,46,108788,16770375,16755638,21621,16746656,5548,2093,701,Tag0,unknown
1623577041429,0,48,1.0546875E-5,43,61,46,108788,16770375,16755638,21621,16746656,5548,2093,701,Tag0,unknown
1623577041430,0,58,1.2744140625E-5,43,61,46,108788,16770375,16755638,21621,16746656,5548,2093,701,Tag0,unknown
1623577041431,0,55,1.20849609375E-5,43,61,46,108788,16770375,16755638,21621,16746656,5548,2093,701,Tag0,unknown
1623577041444,0,39,8.5693359375E-6,43,61,46,108788,16770375,16755638,21621,16746656,5548,2093,701,Tag0,unknown
1623577041445,0,19,4.1748046875E-6,43,61,46,108788,16770375,16755638,21621,16746656,5548,2093,701,Tag0,unknown
1623577041462,0,20,4.39453125E-6,43,61,46,108788,16770375,16755638,21621,16746656,5548,2093,701,Tag0,unknown
1623577041463,0,21,4.614257812500001E-6,43,61,46,108788,16770375,16755638,21621,16746656,5548,2093,701,Tag0,unknown
1623577041464,0,33,7.2509765625E-6,43,61,46,108788,16770375,16755638,21621,16746656,5548,2093,701,Tag0,unknown
1623577041477,0,32,7.03125E-6,43,61,46,108788,16770375,16755638,21621,16746656,5548,2093,701,Tag0,unknown
1623577041478,0,22,4.833984375E-6,43,61,46,108788,16770375,16755638,21621,16746656,5548,2093,701,Tag0,unknown
1623577041496,0,33,7.2509765625E-6,43,61,46,108788,16770375,16755638,21621,16746656,5548,2093,701,Tag0,unknown
1623577041497,0,50,1.0986328125E-5,43,61,46,108788,16770375,16755638,21621,16746656,5548,2093,701,Tag0,unknown
1623577041498,0,52,1.142578125E-5,43,61,46,108788,16770375,16755638,21621,16746656,5548,2093,701,Tag0,unknown
1623577041511,0,55,1.20849609375E-5,43,61,46,108788,16770375,16755638,21621,16746656,5548,2093,701,Tag0,unknown
1623577041512,0,41,9.008789062499999E-6,43,61,46,108788,16770375,16755638,21621,16746656,5548,2093,701,Tag0,unknown
1623577041513,0,41,9.008789062499999E-6,43,61,46,108788,16770375,16755638,21621,16746656,5548,2093,701,Tag0,unknown
1623577041527,0,44,9.66796875E-6,43,61,46,108788,16770375,16755638,21621,16746656,5548,2093,701,Tag0,unknown
1623577041528,0,10,2.197265625E-6,43,61,46,108788,16770375,16755638,21621,16746656,5548,2093,701,Tag0,unknown
1623577041529,0,-262,-5.7568359375E-5,43,61,46,108788,16770375,16755638,21621,16746656,5548,2093,701,Tag0,unknown
1623577041545,0,-264,-5.80078125E-5,43,61,46,108788,16770375,16755638,21621,16746656,5548,2093,701,Tag0,unknown
1623577041546,0,-269,-5.9106445312499996E-5,43,61,46,108788,16770375,16755638,21621,16746656,5548,2093,701,Tag0,unknown
1623577041547,0,-299,-6.56982421875E-5,43,61,46,108788,16770375,16755638,21621,16746656,5548,2093,701,Tag0,unknown
1623577041561,0,-297,-6.525878906250001E-5,43,61,46,108788,16770375,16755638,21621,16746656,5548,2093,701,Tag0,unknown
1623577041562,0,-291,-6.39404296875E-5,43,61,46,108788,16770375,16755638,21621,16746656,5548,2093,701,Tag0,unknown
1623577041578,0,-282,-6.1962890625E-5,43,61,46,108788,16770375,16755638,21621,16746656,5548,2093,701,Tag0,unknown
1623577041579,0,2,4.39453125E-7,43,61,46,108788,16770375,16755638,21621,16746656,5548,2093,701,Tag0,unknown
1623577041596,0,42,9.228515625000002E-6,43,61,46,108788,16770375,16755638,21621,16746656,5548,2093,701,Tag0,unknown
1623577041597,0,21,4.614257812500001E-6,43,61,46,108788,16770375,16755638,21621,16746656,5548,2093,701,Tag0,unknown
1623577041612,0,2,4.39453125E-7,43,61,46,108788,16770375,16755638,21621,16746656,5548,2093,701,Tag0,unknown
1623577041613,0,9,1.9775390625E-6,43,61,46,108788,16770375,16755638,21621,16746656,5548,2093,701,Tag0,unknown
1623577041627,0,1,2.197265625E-7,43,61,46,108788,16770375,16755638,21621,16746656,5548,2093,701,Tag0,unknown
1623577041628,0,-260,-5.712890625E-5,43,61,46,108788,16770375,16755638,21621,16746656,5548,2093,701,Tag0,unknown
1623577041629,0,52,1.142578125E-5,43,61,46,108788,16770375,16755638,21621,16746656,5548,2093,701,Tag0,unknown
1623577041645,0,59,1.29638671875E-5,43,61,46,108788,16770375,16755638,21621,16746656,5548,2093,701,Tag0,unknown
1623577041646,0,66,1.4501953125E-5,43,61,46,108788,16770375,16755638,21621,16746656,5548,2093,701,Tag0,unknown
1623577041647,0,61,1.34033203125E-5,43,61,46,108788,16770375,16755638,21621,16746656,5548,2093,701,Tag0,unknown
1623577041662,0,69,1.51611328125E-5,43,61,46,108788,16770375,16755638,21621,16746656,5548,2093,701,Tag0,unknown
1623577041663,0,86,1.8896484375000003E-5,43,61,46,108788,16770375,16755638,21621,16746656,5548,2093,701,Tag0,unknown
1623577041679,0,71,1.56005859375E-5,43,61,46,108788,16770375,16755638,21621,16746656,5548,2093,701,Tag0,unknown
1623577041680,0,35,7.6904296875E-6,43,61,46,108788,16770375,16755638,21621,16746656,5548,2093,701,Tag0,unknown
1623577041696,0,35,7.6904296875E-6,43,61,46,108788,16770375,16755638,21621,16746656,5548,2093,701,Tag0,unknown
1623577041697,0,20,4.39453125E-6,43,61,46,108788,16770375,16755638,21621,16746656,5548,2093,701,Tag0,unknown
1623577041712,0,41,9.008789062499999E-6,43,61,46,108788,16770375,16755638,21621,16746656,5548,2093,701,Tag0,unknown
1623577041713,0,51,1.1206054687499999E-5,43,61,46,108788,16770375,16755638,21621,16746656,5548,2093,701,Tag0,unknown
1623577041729,0,13,2.8564453125E-6,43,61,46,108788,16770375,16755638,21621,16746656,5548,2093,701,Tag0,unknown
1623577041730,0,-258,-5.6689453125000004E-5,43,61,46,108788,16770375,16755638,21621,16746656,5548,2093,701,Tag0,unknown
1623577041731,0,1,2.197265625E-7,43,61,46,108788,16770375,16755638,21621,16746656,5548,2093,701,Tag0,unknown
1623577041732,0,19,4.1748046875E-6,43,61,46,108788,16770375,16755638,21621,16746656,5548,2093,701,Tag0,unknown
1623577041746,0,17,3.7353515625000003E-6,43,61,46,108788,16770375,16755638,21621,16746656,5548,2093,701,Tag0,unknown
1623577041747,0,20,4.39453125E-6,43,61,46,108788,16770375,16755638,21621,16746656,5548,2093,701,Tag0,unknown
1623577041762,0,-265,-5.82275390625E-5,29,78,46,67753,16748937,152819,43310,17669,3779,2068,2575,Tag0,unknown
1623577041763,0,12,2.63671875E-6,29,78,46,67753,16748937,152819,43310,17669,3779,2068,2575,Tag0,unknown
1623577041781,0,-270,-5.9326171875E-5,29,78,46,67753,16748937,152819,43310,17669,3779,2068,2575,Tag0,unknown
1623577041782,0,2,4.39453125E-7,29,78,46,67753,16748937,152819,43310,17669,3779,2068,2575,Tag0,unknown
1623577041796,0,67,1.4721679687500002E-5,29,78,46,67753,16748937,152819,43310,17669,3779,2068,2575,Tag0,unknown
1623577041813,0,81,1.77978515625E-5,29,78,46,67753,16748937,152819,43310,17669,3779,2068,2575,Tag0,unknown
1623577041828,0,90,1.9775390625E-5,29,78,46,67753,16748937,152819,43310,17669,3779,2068,2575,Tag0,unknown
1623577041829,0,89,1.95556640625E-5,29,78,46,67753,16748937,152819,43310,17669,3779,2068,2575,Tag0,unknown
1623577041848,0,68,1.4941406250000001E-5,29,78,46,67753,16748937,152819,43310,17669,3779,2068,2575,Tag0,unknown
1623577041861,0,48,1.0546875E-5,29,78,46,67753,16748937,152819,43310,17669,3779,2068,2575,Tag0,unknown
1623577041862,0,-266,-5.8447265625E-5,29,78,46,67753,16748937,152819,43310,17669,3779,2068,2575,Tag0,unknown
1623577041863,0,-342,-7.5146484375E-5,29,78,46,67753,16748937,152819,43310,17669,3779,2068,2575,Tag0,unknown
1623577041864,0,-358,-7.8662109375E-5,29,78,46,67753,16748937,152819,43310,17669,3779,2068,2575,Tag0,unknown
1623577041865,0,-354,-7.778320312500001E-5,29,78,46,67753,16748937,152819,43310,17669,3779,2068,2575,Tag0,unknown
1623577041866,0,-129,-2.8344726562500002E-5,29,78,46,67753,16748937,152819,43310,17669,3779,2068,2575,Tag0,unknown
1623577041867,0,-349,-7.668457031250001E-5,29,78,46,67753,16748937,152819,43310,17669,3779,2068,2575,Tag0,unknown
1623577041878,0,-347,-7.62451171875E-5,29,78,46,67753,16748937,152819,43310,17669,3779,2068,2575,Tag0,unknown
1623577041879,0,-339,-7.448730468750001E-5,29,78,46,67753,16748937,152819,43310,17669,3779,2068,2575,Tag0,unknown
1623577041880,0,-262,-5.7568359375E-5,29,78,46,67753,16748937,152819,43310,17669,3779,2068,2575,Tag0,unknown
1623577041895,0,-260,-5.712890625E-5,29,78,46,67753,16748937,152819,43310,17669,3779,2068,2575,Tag0,unknown
1623577041896,0,41,9.008789062499999E-6,29,78,46,67753,16748937,152819,43310,17669,3779,2068,2575,Tag0,unknown
1623577041911,0,51,1.1206054687499999E-5,29,78,46,67753,16748937,152819,43310,17669,3779,2068,2575,Tag0,unknown
1623577041912,0,51,1.1206054687499999E-5,29,78,46,67753,16748937,152819,43310,17669,3779,2068,2575,Tag0,unknown
1623577041913,0,66,1.4501953125E-5,29,78,46,67753,16748937,152819,43310,17669,3779,2068,2575,Tag0,unknown
1623577041928,0,53,1.1645507812500002E-5,29,78,46,67753,16748937,152819,43310,17669,3779,2068,2575,Tag0,unknown
1623577041929,0,51,1.1206054687499999E-5,29,78,46,67753,16748937,152819,43310,17669,3779,2068,2575,Tag0,unknown
1623577041930,0,64,1.40625E-5,29,78,46,67753,16748937,152819,43310,17669,3779,2068,2575,Tag0,unknown
1623577041947,0,68,1.4941406250000001E-5,29,78,46,67753,16748937,152819,43310,17669,3779,2068,2575,Tag0,unknown
1623577041948,0,80,1.7578125E-5,29,78,46,67753,16748937,152819,43310,17669,3779,2068,2575,Tag0,unknown
1623577041949,0,71,1.56005859375E-5,29,78,46,67753,16748937,152819,43310,17669,3779,2068,2575,Tag0,unknown
1623577041962,0,72,1.58203125E-5,29,78,46,67753,16748937,152819,43310,17669,3779,2068,2575,Tag0,unknown
1623577041963,0,75,1.64794921875E-5,29,78,46,67753,16748937,152819,43310,17669,3779,2068,2575,Tag0,unknown
1623577041977,0,76,1.669921875E-5,29,78,46,67753,16748937,152819,43310,17669,3779,2068,2575,Tag0,unknown
1623577041978,0,67,1.4721679687500002E-5,29,78,46,67753,16748937,152819,43310,17669,3779,2068,2575,Tag0,unknown
1623577042001,0,64,1.40625E-5,29,78,46,67753,16748937,152819,43310,17669,3779,2068,2575,Tag0,unknown
1623577042002,0,56,1.23046875E-5,29,78,46,67753,16748937,152819,43310,17669,3779,2068,2575,Tag0,unknown
1623577042003,0,48,1.0546875E-5,29,78,46,67753,16748937,152819,43310,17669,3779,2068,2575,Tag0,unknown
1623577042004,0,8,1.7578125E-6,29,78,46,67753,16748937,152819,43310,17669,3779,2068,2575,Tag0,unknown
1623577042005,0,-279,-6.13037109375E-5,29,78,46,67753,16748937,152819,43310,17669,3779,2068,2575,Tag0,unknown
1623577042006,0,-306,-6.723632812500001E-5,29,78,46,67753,16748937,152819,43310,17669,3779,2068,2575,Tag0,unknown
1623577042009,0,-281,-6.17431640625E-5,29,78,46,67753,16748937,152819,43310,17669,3779,2068,2575,Tag0,unknown
1623577042027,0,-273,-5.998535156250001E-5,29,78,46,67753,16748937,152819,43310,17669,3779,2068,2575,Tag0,unknown
1623577042028,0,-269,-5.9106445312499996E-5,29,78,46,67753,16748937,152819,43310,17669,3779,2068,2575,Tag0,unknown
1623577042029,0,25,5.4931640625E-6,29,78,46,67753,16748937,152819,43310,17669,3779,2068,2575,Tag0,unknown
1623577042030,0,82,1.8017578124999998E-5,29,78,46,67753,16748937,152819,43310,17669,3779,2068,2575,Tag0,unknown
1623577042046,0,77,1.69189453125E-5,29,78,46,67753,16748937,152819,43310,17669,3779,2068,2575,Tag0,unknown
1623577042047,0,75,1.64794921875E-5,29,78,46,67753,16748937,152819,43310,17669,3779,2068,2575,Tag0,unknown
1623577042048,0,103,2.26318359375E-5,29,78,46,67753,16748937,152819,43310,17669,3779,2068,2575,Tag0,unknown
1623577042062,0,87,1.91162109375E-5,29,78,46,67753,16748937,152819,43310,17669,3779,2068,2575,Tag0,unknown
1623577042079,0,80,1.7578125E-5,29,78,46,67753,16748937,152819,43310,17669,3779,2068,2575,Tag0,unknown
1623577042080,0,69,1.51611328125E-5,29,78,46,67753,16748937,152819,43310,17669,3779,2068,2575,Tag0,unknown
1623577042081,0,60,1.318359375E-5,29,78,46,67753,16748937,152819,43310,17669,3779,2068,2575,Tag0,unknown
1623577042082,0,16,3.515625E-6,29,78,46,67753,16748937,152819,43310,17669,3779,2068,2575,Tag0,unknown
1623577042083,0,4,8.7890625E-7,29,78,46,67753,16748937,152819,43310,17669,3779,2068,2575,Tag0,unknown
1623577042098,0,-267,-5.86669921875E-5,29,78,46,67753,16748937,152819,43310,17669,3779,2068,2575,Tag0,unknown
1623577042099,0,-299,-6.56982421875E-5,29,78,46,67753,16748937,152819,43310,17669,3779,2068,2575,Tag0,unknown
1623577042100,0,-283,-6.218261718750001E-5,29,78,46,67753,16748937,152819,43310,17669,3779,2068,2575,Tag0,unknown
1623577042101,0,16,3.515625E-6,29,78,46,67753,16748937,152819,43310,17669,3779,2068,2575,Tag0,unknown
1623577042113,0,27,5.9326171875000005E-6,29,78,46,67753,16748937,152819,43310,17669,3779,2068,2575,Tag0,unknown
1623577042114,0,37,8.1298828125E-6,29,78,46,67753,16748937,152819,43310,17669,3779,2068,2575,Tag0,unknown
1623577042128,0,68,1.4941406250000001E-5,29,78,46,67753,16748937,152819,43310,17669,3779,2068,2575,Tag0,unknown
1623577042129,0,82,1.8017578124999998E-5,29,78,46,67753,16748937,152819,43310,17669,3779,2068,2575,Tag0,unknown
1623577042130,0,97,2.13134765625E-5,29,78,46,67753,16748937,152819,43310,17669,3779,2068,2575,Tag0,unknown
1623577042131,0,80,1.7578125E-5,29,78,46,67753,16748937,152819,43310,17669,3779,2068,2575,Tag0,unknown
1623577042132,0,68,1.4941406250000001E-5,29,78,46,67753,16748937,152819,43310,17669,3779,2068,2575,Tag0,unknown
1623577042146,0,65,1.42822265625E-5,29,78,46,67753,16748937,152819,43310,17669,3779,2068,2575,Tag0,unknown
1623577042147,0,55,1.20849609375E-5,29,78,46,67753,16748937,152819,43310,17669,3779,2068,2575,Tag0,unknown
1623577042148,0,74,1.6259765625E-5,29,78,46,67753,16748937,152819,43310,17669,3779,2068,2575,Tag0,unknown
1623577042163,0,80,1.7578125E-5,29,78,46,67753,16748937,152819,43310,17669,3779,2068,2575,Tag0,unknown
1623577042164,0,100,2.197265625E-5,29,78,46,67753,16748937,152819,43310,17669,3779,2068,2575,Tag0,unknown
1623577042180,0,92,2.021484375E-5,29,78,46,67753,16748937,152819,43310,17669,3779,2068,2575,Tag0,unknown
